Frequency;Channel A
(kHz);(dBV)

0,00000000;-64,80287000
0,00366182;-65,06525000
0,00732363;-66,03529000
0,01098545;-69,39607000
0,01464727;-75,32274000
0,01830908;-83,02242000
0,02197090;-87,95594000
0,02563271;-87,20195000
0,02929453;-86,61404000
0,03295635;-86,57817000
0,03661816;-85,61887000
0,04027998;-82,21027000
0,04394180;-80,01973000
0,04760361;-78,30722000
0,05126543;-77,23510000
0,05492725;-77,12543000
0,05858906;-77,52409000
0,06225088;-79,76353000
0,06591269;-84,60896000
0,06957451;-89,04343000
0,07323633;-87,65303000
0,07689814;-87,90822000
0,08055996;-91,26334000
0,08422178;-93,06494000
0,08788359;-87,62967000
0,09154541;-82,77742000
0,09520723;-80,09138000
0,09886904;-79,00027000
0,10253086;-80,35767000
0,10619267;-82,55351000
0,10985449;-83,41510000
0,11351631;-84,87748000
0,11717812;-88,18483000
0,12083994;-93,64788000
0,12450176;-95,24100000
0,12816357;-94,90861000
0,13182539;-96,24292000
0,13548721;-87,31213000
0,13914902;-84,04517000
0,14281084;-82,05818000
0,14647265;-81,17904000
0,15013447;-81,39266000
0,15379629;-81,90280000
0,15745810;-84,18273000
0,16111992;-87,15025000
0,16478174;-88,60159000
0,16844355;-88,83162000
0,17210537;-86,27945000
0,17576719;-84,72539000
0,17942900;-84,09992000
0,18309082;-83,95120000
0,18675263;-86,35178000
0,19041445;-90,70908000
0,19407627;-92,25342000
0,19773808;-91,23373000
0,20139990;-89,42441000
0,20506172;-88,36025000
0,20872353;-87,15421000
0,21238535;-83,69091000
0,21604717;-81,52836000
0,21970898;-81,69728000
0,22337080;-81,91083000
0,22703261;-82,74014000
0,23069443;-85,05930000
0,23435625;-88,02639000
0,23801806;-90,71637000
0,24167988;-90,80550000
0,24534170;-89,86702000
0,24900351;-87,52499000
0,25266533;-85,60828000
0,25632715;-82,69276000
0,25998896;-81,02012000
0,26365078;-80,94414000
0,26731259;-81,79126000
0,27097441;-83,58530000
0,27463623;-85,87615000
0,27829804;-88,27701000
0,28195986;-85,71455000
0,28562168;-84,82594000
0,28928349;-85,86007000
0,29294531;-84,96983000
0,29660713;-84,14985000
0,30026894;-84,72729000
0,30393076;-85,74844000
0,30759257;-86,33717000
0,31125439;-85,39985000
0,31491621;-85,53564000
0,31857802;-88,83665000
0,32223984;-89,83076000
0,32590166;-88,15541000
0,32956347;-87,13474000
0,33322529;-88,39938000
0,33688710;-88,44795000
0,34054892;-89,26306000
0,34421074;-96,36755000
0,34787255;-97,54683000
0,35153437;-90,49628000
0,35519619;-85,68553000
0,35885800;-83,01671000
0,36251982;-81,13570000
0,36618164;-80,97591000
0,36984345;-81,83242000
0,37350527;-81,97054000
0,37716708;-83,71509000
0,38082890;-86,50234000
0,38449072;-86,09236000
0,38815253;-85,13724000
0,39181435;-84,36610000
0,39547617;-84,97386000
0,39913798;-87,23274000
0,40279980;-88,55704000
0,40646162;-89,32042000
0,41012343;-90,36800000
0,41378525;-90,53493000
0,41744706;-89,81232000
0,42110888;-87,37833000
0,42477070;-86,85204000
0,42843251;-85,97415000
0,43209433;-85,30946000
0,43575615;-85,14588000
0,43941796;-85,61154000
0,44307978;-90,90958000
0,44674160;-101,35690000
0,45040341;-86,68422000
0,45406523;-81,84528000
0,45772704;-80,49535000
0,46138886;-79,73619000
0,46505068;-79,78364000
0,46871249;-82,02056000
0,47237431;-86,17500000
0,47603613;-91,45308000
0,47969794;-98,50603000
0,48335976;-107,35240000
0,48702158;-100,00100000
0,49068339;-95,66871000
0,49434521;-97,36008000
0,49800702;-97,88515000
0,50166884;-106,56140000
0,50533066;-93,85425000
0,50899247;-89,38980000
0,51265429;-86,82454000
0,51631611;-86,61252000
0,51997792;-88,20795000
0,52363974;-88,17824000
0,52730156;-88,36681000
0,53096337;-90,00993000
0,53462519;-92,64179000
0,53828700;-99,76263000
0,54194882;-103,72230000
0,54561064;-109,27500000
0,54927245;-94,83681000
0,55293427;-93,24312000
0,55659609;-102,88990000
0,56025790;-97,88943000
0,56391972;-91,75044000
0,56758154;-89,51659000
0,57124335;-87,87148000
0,57490517;-86,88466000
0,57856698;-87,84743000
0,58222880;-89,06165000
0,58589062;-87,97799000
0,58955243;-85,54913000
0,59321425;-85,69296000
0,59687607;-86,87883000
0,60053788;-87,14159000
0,60419970;-84,22809000
0,60786152;-82,26987000
0,61152333;-81,24219000
0,61518515;-80,00709000
0,61884696;-78,19043000
0,62250878;-76,26437000
0,62617060;-75,11198000
0,62983241;-75,33598000
0,63349423;-76,99523000
0,63715605;-78,94282000
0,64081786;-82,35019000
0,64447968;-90,35226000
0,64814150;-100,71590000
0,65180331;-98,46765000
0,65546513;-107,49970000
0,65912694;-96,72578000
0,66278876;-95,69630000
0,66645058;-88,32466000
0,67011239;-84,31907000
0,67377421;-84,04906000
0,67743603;-84,35587000
0,68109784;-84,03200000
0,68475966;-84,85652000
0,68842148;-88,62205000
0,69208329;-86,90701000
0,69574511;-83,07039000
0,69940692;-82,34311000
0,70306874;-83,29868000
0,70673056;-86,10835000
0,71039237;-88,03690000
0,71405419;-84,94228000
0,71771601;-83,66989000
0,72137782;-83,82597000
0,72503964;-87,02757000
0,72870146;-92,82158000
0,73236327;-89,40987000
0,73602509;-88,77611000
0,73968690;-94,19186000
0,74334872;-98,72105000
0,74701054;-95,75119000
0,75067235;-100,84390000
0,75433417;-97,32515000
0,75799599;-87,17968000
0,76165780;-82,87111000
0,76531962;-81,26534000
0,76898144;-81,38205000
0,77264325;-83,73904000
0,77630507;-86,56564000
0,77996688;-90,09995000
0,78362870;-99,77165000
0,78729052;-94,67187000
0,79095233;-87,85636000
0,79461415;-83,18486000
0,79827597;-81,17053000
0,80193778;-80,76436000
0,80559960;-81,15286000
0,80926142;-81,79203000
0,81292323;-82,98477000
0,81658505;-84,76183000
0,82024686;-87,97706000
0,82390868;-94,70666000
0,82757050;-98,15697000
0,83123231;-92,40842000
0,83489413;-88,12289000
0,83855595;-92,47542000
0,84221776;-101,73560000
0,84587958;-86,53688000
0,84954140;-81,47655000
0,85320321;-79,22989000
0,85686503;-77,68749000
0,86052684;-78,49015000
0,86418866;-82,08500000
0,86785048;-86,64565000
0,87151229;-88,64771000
0,87517411;-87,06924000
0,87883593;-86,68425000
0,88249774;-86,98066000
0,88615956;-95,28970000
0,88982138;-91,64371000
0,89348319;-87,26495000
0,89714501;-85,13452000
0,90080682;-84,70223000
0,90446864;-86,64966000
0,90813046;-87,94068000
0,91179227;-86,67553000
0,91545409;-85,24031000
0,91911591;-84,44255000
0,92277772;-84,73724000
0,92643954;-89,23046000
0,93010136;-98,35608000
0,93376317;-89,32648000
0,93742499;-87,65163000
0,94108680;-86,63601000
0,94474862;-86,84814000
0,94841044;-90,36919000
0,95207225;-91,60763000
0,95573407;-87,78279000
0,95939589;-86,43631000
0,96305770;-89,53155000
0,96671952;-92,11977000
0,97038134;-93,01086000
0,97404315;-97,14286000
0,97770497;-89,25567000
0,98136678;-85,21696000
0,98502860;-82,79172000
0,98869042;-80,38802000
0,99235223;-79,58457000
0,99601405;-80,01740000
0,99967587;-80,53729000
1,00333768;-81,52399000
1,00699950;-84,58234000
1,01066131;-90,17610000
1,01432313;-90,16428000
1,01798495;-91,41635000
1,02164676;-93,56579000
1,02530858;-96,47339000
1,02897040;-92,53909000
1,03263221;-90,22050000
1,03629403;-86,74216000
1,03995585;-85,47945000
1,04361766;-86,09737000
1,04727948;-86,25797000
1,05094129;-87,87830000
1,05460311;-91,53962000
1,05826493;-91,33025000
1,06192674;-91,46058000
1,06558856;-91,17506000
1,06925038;-91,66481000
1,07291219;-98,15828000
1,07657401;-89,31546000
1,08023583;-85,55042000
1,08389764;-85,02525000
1,08755946;-87,65276000
1,09122127;-86,38859000
1,09488309;-81,90510000
1,09854491;-78,51482000
1,10220672;-77,43526000
1,10586854;-77,13187000
1,10953036;-77,95384000
1,11319217;-80,86109000
1,11685399;-83,93929000
1,12051581;-86,12895000
1,12417762;-87,03444000
1,12783944;-85,65273000
1,13150125;-83,15665000
1,13516307;-80,78485000
1,13882489;-78,91266000
1,14248670;-78,79364000
1,14614852;-79,46835000
1,14981034;-80,78248000
1,15347215;-81,22342000
1,15713397;-80,60513000
1,16079579;-80,33208000
1,16445760;-81,26771000
1,16811942;-84,17923000
1,17178123;-85,03425000
1,17544305;-84,48488000
1,17910487;-84,89427000
1,18276668;-88,07476000
1,18642850;-92,78876000
1,19009032;-98,45636000
1,19375213;-96,56702000
1,19741395;-89,41931000
1,20107577;-83,63824000
1,20473758;-81,11652000
1,20839940;-79,90857000
1,21206121;-78,88519000
1,21572303;-77,66358000
1,21938485;-77,48752000
1,22304666;-78,61267000
1,22670848;-80,24571000
1,23037030;-83,48485000
1,23403211;-88,01627000
1,23769393;-86,52710000
1,24135575;-85,99634000
1,24501756;-83,76163000
1,24867938;-81,08601000
1,25234119;-80,11119000
1,25600301;-79,36868000
1,25966483;-78,25076000
1,26332664;-78,33722000
1,26698846;-79,22664000
1,27065028;-80,39920000
1,27431209;-81,23611000
1,27797391;-81,29953000
1,28163573;-83,20090000
1,28529754;-85,13307000
1,28895936;-86,98769000
1,29262117;-88,10080000
1,29628299;-86,78682000
1,29994481;-87,01985000
1,30360662;-87,94560000
1,30726844;-91,77370000
1,31093026;-89,43010000
1,31459207;-87,19589000
1,31825389;-84,66775000
1,32191571;-84,95271000
1,32557752;-83,48380000
1,32923934;-83,23258000
1,33290115;-83,42063000
1,33656297;-83,52813000
1,34022479;-83,42126000
1,34388660;-82,22462000
1,34754842;-81,19254000
1,35121024;-79,90450000
1,35487205;-79,39658000
1,35853387;-80,63488000
1,36219569;-83,05072000
1,36585750;-89,18140000
1,36951932;-107,77650000
1,37318113;-103,61510000
1,37684295;-96,01040000
1,38050477;-89,05087000
1,38416658;-86,54451000
1,38782840;-85,59492000
1,39149022;-85,88364000
1,39515203;-86,00903000
1,39881385;-88,72845000
1,40247567;-95,04607000
1,40613748;-102,44200000
1,40979930;-98,33273000
1,41346111;-91,83347000
1,41712293;-86,83659000
1,42078475;-85,51398000
1,42444656;-85,89586000
1,42810838;-85,32532000
1,43177020;-87,44221000
1,43543201;-88,36303000
1,43909383;-89,66195000
1,44275565;-101,15600000
1,44641746;-98,01064000
1,45007928;-96,11144000
1,45374109;-93,97160000
1,45740291;-97,04787000
1,46106473;-90,44034000
1,46472654;-88,13312000
1,46838836;-90,35422000
1,47205018;-87,58041000
1,47571199;-89,50395000
1,47937381;-88,33271000
1,48303563;-84,80735000
1,48669744;-80,93835000
1,49035926;-80,78712000
1,49402107;-82,38865000
1,49768289;-82,35546000
1,50134471;-81,51733000
1,50500652;-80,20895000
1,50866834;-80,37231000
1,51233016;-79,63406000
1,51599197;-80,13203000
1,51965379;-80,79388000
1,52331561;-80,27589000
1,52697742;-81,20953000
1,53063924;-80,03094000
1,53430105;-79,27213000
1,53796287;-80,99828000
1,54162469;-80,82526000
1,54528650;-81,94080000
1,54894832;-83,57617000
1,55261014;-81,77818000
1,55627195;-82,54342000
1,55993377;-83,45558000
1,56359559;-84,02831000
1,56725740;-88,31628000
1,57091922;-89,03502000
1,57458103;-92,41734000
1,57824285;-93,71487000
1,58190467;-89,52327000
1,58556648;-88,86875000
1,58922830;-87,92517000
1,59289012;-90,35908000
1,59655193;-87,58499000
1,60021375;-86,56114000
1,60387557;-85,88989000
1,60753738;-82,87711000
1,61119920;-84,78876000
1,61486101;-85,81525000
1,61852283;-82,48636000
1,62218465;-82,03744000
1,62584646;-79,73357000
1,62950828;-79,00147000
1,63317010;-81,15247000
1,63683191;-82,23091000
1,64049373;-87,43666000
1,64415554;-90,95696000
1,64781736;-86,80238000
1,65147918;-82,78255000
1,65514099;-80,86457000
1,65880281;-80,24893000
1,66246463;-80,01099000
1,66612644;-81,16808000
1,66978826;-83,09842000
1,67345008;-83,33220000
1,67711189;-85,08381000
1,68077371;-83,52128000
1,68443552;-85,04746000
1,68809734;-95,07620000
1,69175916;-92,88512000
1,69542097;-85,06810000
1,69908279;-80,64861000
1,70274461;-81,17519000
1,70640642;-79,78017000
1,71006824;-80,93215000
1,71373006;-83,33133000
1,71739187;-84,01646000
1,72105369;-82,12108000
1,72471550;-80,50076000
1,72837732;-81,04748000
1,73203914;-78,48376000
1,73570095;-78,42513000
1,73936277;-78,78593000
1,74302459;-78,44420000
1,74668640;-81,18821000
1,75034822;-82,06905000
1,75401004;-83,75009000
1,75767185;-89,30871000
1,76133367;-86,02764000
1,76499548;-89,11613000
1,76865730;-98,37784000
1,77231912;-88,05554000
1,77598093;-89,94370000
1,77964275;-86,78262000
1,78330457;-84,90359000
1,78696638;-85,83268000
1,79062820;-86,28748000
1,79429002;-85,06375000
1,79795183;-82,09972000
1,80161365;-81,95029000
1,80527546;-80,86972000
1,80893728;-80,32449000
1,81259910;-80,80436000
1,81626091;-82,66373000
1,81992273;-84,89841000
1,82358455;-84,76490000
1,82724636;-94,75955000
1,83090818;-87,09840000
1,83457000;-87,30606000
1,83823181;-91,79636000
1,84189363;-87,18903000
1,84555544;-94,49959000
1,84921726;-97,95928000
1,85287908;-89,17143000
1,85654089;-98,25416000
1,86020271;-94,91523000
1,86386453;-86,40496000
1,86752634;-100,66890000
1,87118816;-89,80933000
1,87484998;-98,37325000
1,87851179;-88,04530000
1,88217361;-90,61995000
1,88583542;-90,05464000
1,88949724;-91,06699000
1,89315906;-88,70863000
1,89682087;-91,58324000
1,90048269;-84,70074000
1,90414451;-82,18381000
1,90780632;-96,91437000
1,91146814;-80,21829000
1,91512996;-83,04898000
1,91879177;-93,28582000
1,92245359;-80,75658000
1,92611540;-91,58291000
1,92977722;-94,99569000
1,93343904;-86,00870000
1,93710085;-80,17722000
1,94076267;-113,14280000
1,94442449;-100,57230000
1,94808630;-78,27032000
1,95174812;-83,34378000
1,95540994;-83,36895000
1,95907175;-77,98473000
1,96273357;-77,53239000
1,96639538;-77,17908000
1,97005720;-96,46988000
1,97371902;-74,36506000
1,97738083;-59,71381000
1,98104265;-35,32656000
1,98470447;-20,22306000
1,98836628;-11,30111000
1,99202810;-6,72511400
1,99568992;-5,13632800
1,99935173;-4,96034300
2,00301355;-4,99782600
2,00667536;-5,87810400
2,01033718;-9,21068200
2,01399900;-16,38695000
2,01766081;-28,94554000
2,02132263;-49,27620000
2,02498445;-81,63418000
2,02864626;-78,13708000
2,03230808;-73,67356000
2,03596990;-82,11115000
2,03963171;-92,70412000
2,04329353;-77,36240000
2,04695534;-79,82761000
2,05061716;-83,75098000
2,05427898;-83,36053000
2,05794079;-85,04158000
2,06160261;-81,42890000
2,06526443;-105,27390000
2,06892624;-97,64533000
2,07258806;-80,16501000
2,07624988;-104,41980000
2,07991169;-84,04777000
2,08357351;-78,66242000
2,08723532;-86,27570000
2,09089714;-79,31966000
2,09455896;-80,74120000
2,09822077;-85,82200000
2,10188259;-78,21575000
2,10554441;-84,31626000
2,10920622;-86,55407000
2,11286804;-82,01126000
2,11652986;-107,08660000
2,12019167;-87,82822000
2,12385349;-83,96051000
2,12751530;-81,10358000
2,13117712;-81,08803000
2,13483894;-80,20837000
2,13850075;-79,03513000
2,14216257;-80,05119000
2,14582439;-79,99518000
2,14948620;-81,70032000
2,15314802;-86,04118000
2,15680984;-83,32434000
2,16047165;-95,93144000
2,16413347;-103,62330000
2,16779528;-96,06322000
2,17145710;-86,56475000
2,17511892;-87,36232000
2,17878073;-86,44577000
2,18244255;-83,36064000
2,18610437;-89,61083000
2,18976618;-90,01765000
2,19342800;-85,91605000
2,19708982;-83,34571000
2,20075163;-79,56415000
2,20441345;-77,73024000
2,20807526;-77,52579000
2,21173708;-78,80016000
2,21539890;-81,90888000
2,21906071;-88,06953000
2,22272253;-91,76192000
2,22638435;-87,25668000
2,23004616;-86,11029000
2,23370798;-86,07271000
2,23736980;-81,26627000
2,24103161;-82,02026000
2,24469343;-80,88547000
2,24835524;-80,74522000
2,25201706;-83,71613000
2,25567888;-82,28631000
2,25934069;-83,99669000
2,26300251;-88,14998000
2,26666433;-87,52335000
2,27032614;-91,74828000
2,27398796;-89,78715000
2,27764978;-91,89513000
2,28131159;-86,62965000
2,28497341;-86,31537000
2,28863522;-84,67323000
2,29229704;-81,96702000
2,29595886;-85,51364000
2,29962067;-83,79935000
2,30328249;-81,91373000
2,30694431;-83,76497000
2,31060612;-81,75092000
2,31426794;-83,96349000
2,31792975;-89,20345000
2,32159157;-85,66376000
2,32525339;-87,63841000
2,32891520;-87,68098000
2,33257702;-88,38014000
2,33623884;-85,70449000
2,33990065;-87,50747000
2,34356247;-86,20378000
2,34722429;-82,27843000
2,35088610;-83,07052000
2,35454792;-81,86439000
2,35820973;-81,43688000
2,36187155;-84,29207000
2,36553337;-83,86449000
2,36919518;-85,87844000
2,37285700;-89,34078000
2,37651882;-86,15066000
2,38018063;-88,81473000
2,38384245;-90,57672000
2,38750427;-92,72729000
2,39116608;-95,04733000
2,39482790;-92,96323000
2,39848971;-92,30567000
2,40215153;-88,92670000
2,40581335;-93,03725000
2,40947516;-94,27454000
2,41313698;-92,69080000
2,41679880;-86,80444000
2,42046061;-89,83094000
2,42412243;-89,43772000
2,42778425;-86,96117000
2,43144606;-86,08437000
2,43510788;-83,63609000
2,43876969;-84,01818000
2,44243151;-84,13840000
2,44609333;-85,88555000
2,44975514;-83,95453000
2,45341696;-83,52649000
2,45707878;-85,65649000
2,46074059;-85,02006000
2,46440241;-87,27325000
2,46806423;-86,94975000
2,47172604;-83,63684000
2,47538786;-84,25785000
2,47904967;-82,77279000
2,48271149;-81,09984000
2,48637331;-82,82111000
2,49003512;-83,29747000
2,49369694;-85,47889000
2,49735876;-86,89067000
2,50102057;-84,21208000
2,50468239;-86,93124000
2,50834421;-90,21689000
2,51200602;-87,29763000
2,51566784;-85,97962000
2,51932965;-83,90590000
2,52299147;-82,50334000
2,52665329;-80,34819000
2,53031510;-78,31496000
2,53397692;-77,61870000
2,53763874;-78,66956000
2,54130055;-82,02841000
2,54496237;-83,77175000
2,54862419;-84,80312000
2,55228600;-86,49995000
2,55594782;-87,58170000
2,55960963;-89,44592000
2,56327145;-89,66035000
2,56693327;-94,88193000
2,57059508;-95,49277000
2,57425690;-99,78165000
2,57791872;-88,53754000
2,58158053;-86,81915000
2,58524235;-85,05115000
2,58890417;-88,83867000
2,59256598;-88,41765000
2,59622780;-85,69428000
2,59988961;-82,71407000
2,60355143;-81,71449000
2,60721325;-82,15051000
2,61087506;-83,53852000
2,61453688;-82,97039000
2,61819870;-81,47313000
2,62186051;-81,33523000
2,62552233;-79,16656000
2,62918415;-78,81886000
2,63284596;-79,65443000
2,63650778;-79,98412000
2,64016959;-81,61693000
2,64383141;-82,64966000
2,64749323;-84,81973000
2,65115504;-90,29115000
2,65481686;-94,94595000
2,65847868;-104,85180000
2,66214049;-88,75699000
2,66580231;-84,80679000
2,66946413;-81,78481000
2,67312594;-81,17351000
2,67678776;-82,66986000
2,68044957;-84,01344000
2,68411139;-90,45230000
2,68777321;-105,32910000
2,69143502;-95,99184000
2,69509684;-90,79738000
2,69875866;-89,24308000
2,70242047;-87,22234000
2,70608229;-83,73557000
2,70974411;-82,77271000
2,71340592;-81,55450000
2,71706774;-80,07816000
2,72072955;-80,57949000
2,72439137;-82,37092000
2,72805319;-85,92770000
2,73171500;-89,90248000
2,73537682;-100,08520000
2,73903864;-95,20354000
2,74270045;-90,65964000
2,74636227;-87,57127000
2,75002409;-88,78681000
2,75368590;-87,69276000
2,75734772;-87,02589000
2,76100953;-85,08605000
2,76467135;-83,15247000
2,76833317;-83,75349000
2,77199498;-85,58919000
2,77565680;-86,32526000
2,77931862;-87,96416000
2,78298043;-86,70888000
2,78664225;-83,30791000
2,79030407;-83,92780000
2,79396588;-85,15022000
2,79762770;-86,98032000
2,80128951;-88,00805000
2,80495133;-86,56838000
2,80861315;-86,71378000
2,81227496;-88,55241000
2,81593678;-91,78386000
2,81959860;-95,04464000
2,82326041;-90,13986000
2,82692223;-87,15847000
2,83058405;-85,23468000
2,83424586;-85,55849000
2,83790768;-85,99615000
2,84156949;-86,18184000
2,84523131;-87,77462000
2,84889313;-87,42276000
2,85255494;-90,18967000
2,85621676;-101,43170000
2,85987858;-112,72040000
2,86354039;-94,24885000
2,86720221;-90,87520000
2,87086403;-94,32271000
2,87452584;-109,08720000
2,87818766;-94,35890000
2,88184947;-90,58278000
2,88551129;-91,01028000
2,88917311;-92,40571000
2,89283492;-90,77208000
2,89649674;-87,56775000
2,90015856;-87,61059000
2,90382037;-86,03812000
2,90748219;-84,12932000
2,91114401;-83,33839000
2,91480582;-82,54284000
2,91846764;-81,92635000
2,92212945;-80,21568000
2,92579127;-78,86056000
2,92945309;-81,08527000
2,93311490;-84,59884000
2,93677672;-86,36311000
2,94043854;-90,13235000
2,94410035;-94,25597000
2,94776217;-91,23233000
2,95142399;-86,12379000
2,95508580;-83,54073000
2,95874762;-81,52751000
2,96240943;-79,21170000
2,96607125;-77,78107000
2,96973307;-77,52663000
2,97339488;-79,06572000
2,97705670;-81,85078000
2,98071852;-86,34433000
2,98438033;-93,92033000
2,98804215;-86,32583000
2,99170396;-84,52175000
2,99536578;-82,83012000
2,99902760;-82,48134000
3,00268941;-82,53058000
3,00635123;-83,17061000
3,01001305;-86,66543000
3,01367486;-90,60012000
3,01733668;-89,93941000
3,02099850;-84,78741000
3,02466031;-82,95573000
3,02832213;-82,93509000
3,03198394;-82,57157000
3,03564576;-81,40218000
3,03930758;-81,44028000
3,04296939;-81,67500000
3,04663121;-82,17828000
3,05029303;-82,02718000
3,05395484;-79,84397000
3,05761666;-78,68143000
3,06127848;-79,03342000
3,06494029;-79,91247000
3,06860211;-81,31256000
3,07226392;-82,73810000
3,07592574;-84,05315000
3,07958756;-87,32677000
3,08324937;-87,72572000
3,08691119;-88,61636000
3,09057301;-93,65401000
3,09423482;-90,91633000
3,09789664;-88,84499000
3,10155846;-86,30561000
3,10522027;-83,20606000
3,10888209;-82,06735000
3,11254390;-80,49176000
3,11620572;-78,72453000
3,11986754;-78,86501000
3,12352935;-79,75004000
3,12719117;-81,41528000
3,13085299;-84,26959000
3,13451480;-86,24777000
3,13817662;-88,05869000
3,14183844;-87,03744000
3,14550025;-87,51334000
3,14916207;-87,87266000
3,15282388;-89,48552000
3,15648570;-95,71288000
3,16014752;-91,07370000
3,16380933;-85,07999000
3,16747115;-81,71527000
3,17113297;-79,93974000
3,17479478;-78,37318000
3,17845660;-77,96471000
3,18211842;-78,45997000
3,18578023;-79,13370000
3,18944205;-80,63499000
3,19310386;-83,10596000
3,19676568;-86,38264000
3,20042750;-88,03719000
3,20408931;-87,18827000
3,20775113;-89,58001000
3,21141295;-92,06636000
3,21507476;-94,51694000
3,21873658;-89,77570000
3,22239840;-85,60403000
3,22606021;-83,79810000
3,22972203;-82,20325000
3,23338384;-81,04076000
3,23704566;-79,49906000
3,24070748;-78,21075000
3,24436929;-78,32449000
3,24803111;-79,34187000
3,25169293;-81,98303000
3,25535474;-88,97556000
3,25901656;-94,67764000
3,26267838;-84,57632000
3,26634019;-80,62662000
3,27000201;-80,14394000
3,27366382;-80,40941000
3,27732564;-82,02743000
3,28098746;-85,46909000
3,28464927;-88,94542000
3,28831109;-96,46061000
3,29197291;-102,68390000
3,29563472;-88,89164000
3,29929654;-82,42707000
3,30295836;-79,73569000
3,30662017;-78,70465000
3,31028199;-77,90104000
3,31394380;-78,28946000
3,31760562;-79,46273000
3,32126744;-81,66504000
3,32492925;-84,81606000
3,32859107;-86,29735000
3,33225289;-88,07412000
3,33591470;-92,95776000
3,33957652;-101,07850000
3,34323834;-89,66510000
3,34690015;-83,07117000
3,35056197;-80,05722000
3,35422378;-80,55708000
3,35788560;-83,08043000
3,36154742;-86,02771000
3,36520923;-89,22303000
3,36887105;-91,10573000
3,37253287;-90,74242000
3,37619468;-89,53625000
3,37985650;-86,22214000
3,38351832;-84,70707000
3,38718013;-82,69134000
3,39084195;-80,96132000
3,39450376;-81,49881000
3,39816558;-82,26096000
3,40182740;-83,16455000
3,40548921;-84,77608000
3,40915103;-85,55589000
3,41281285;-86,86726000
3,41647466;-86,27338000
3,42013648;-85,52635000
3,42379830;-85,27016000
3,42746011;-86,91547000
3,43112193;-90,60777000
3,43478374;-93,69114000
3,43844556;-109,96230000
3,44210738;-99,67485000
3,44576919;-100,03980000
3,44943101;-98,60414000
3,45309283;-96,87829000
3,45675464;-96,55682000
3,46041646;-102,52850000
3,46407828;-97,81967000
3,46774009;-92,52151000
3,47140191;-91,32295000
3,47506372;-90,53502000
3,47872554;-88,57499000
3,48238736;-85,10414000
3,48604917;-84,97508000
3,48971099;-94,69241000
3,49337281;-93,33836000
3,49703462;-85,02862000
3,50069644;-81,13984000
3,50435826;-80,10410000
3,50802007;-80,13437000
3,51168189;-81,43712000
3,51534370;-83,64864000
3,51900552;-84,55337000
3,52266734;-85,87146000
3,52632915;-86,02441000
3,52999097;-84,28830000
3,53365279;-84,07468000
3,53731460;-85,30299000
3,54097642;-87,94814000
3,54463824;-89,23322000
3,54830005;-90,43908000
3,55196187;-89,69918000
3,55562368;-86,84872000
3,55928550;-83,96069000
3,56294732;-80,58018000
3,56660913;-78,22837000
3,57027095;-77,28826000
3,57393277;-77,46339000
3,57759458;-77,65830000
3,58125640;-77,99982000
3,58491822;-79,43610000
3,58858003;-81,56447000
3,59224185;-85,05836000
3,59590366;-90,58105000
3,59956548;-98,77934000
3,60322730;-108,38660000
3,60688911;-98,37543000
3,61055093;-94,33093000
3,61421275;-92,91295000
3,61787456;-92,25457000
3,62153638;-87,25838000
3,62519819;-83,37228000
3,62886001;-81,29165000
3,63252183;-80,59468000
3,63618364;-80,06677000
3,63984546;-80,41060000
3,64350728;-82,11444000
3,64716909;-86,91685000
3,65083091;-95,02410000
3,65449273;-94,09782000
3,65815454;-90,19532000
3,66181636;-90,72409000
3,66547817;-87,56613000
3,66913999;-84,91881000
3,67280181;-84,57688000
3,67646362;-85,21175000
3,68012544;-86,19107000
3,68378726;-86,46875000
3,68744907;-85,56221000
3,69111089;-83,46729000
3,69477271;-81,38454000
3,69843452;-80,67321000
3,70209634;-79,99366000
3,70575815;-79,06388000
3,70941997;-79,80653000
3,71308179;-81,24618000
3,71674360;-82,68919000
3,72040542;-84,25386000
3,72406724;-86,99010000
3,72772905;-96,48375000
3,73139087;-95,69122000
3,73505269;-88,25275000
3,73871450;-83,09554000
3,74237632;-80,91011000
3,74603813;-80,73628000
3,74969995;-81,70621000
3,75336177;-83,54781000
3,75702358;-84,31626000
3,76068540;-82,83927000
3,76434722;-80,55442000
3,76800903;-81,59942000
3,77167085;-85,31946000
3,77533267;-83,70922000
3,77899448;-80,21661000
3,78265630;-79,20935000
3,78631811;-79,13886000
3,78997993;-80,18274000
3,79364175;-84,88902000
3,79730356;-89,18529000
3,80096538;-85,21739000
3,80462720;-83,23004000
3,80828901;-81,90082000
3,81195083;-81,45825000
3,81561265;-82,70248000
3,81927446;-84,26280000
3,82293628;-85,55843000
3,82659809;-85,16620000
3,83025991;-84,05272000
3,83392173;-84,75513000
3,83758354;-86,11398000
3,84124536;-89,05502000
3,84490718;-95,38476000
3,84856899;-97,03049000
3,85223081;-96,91388000
3,85589263;-93,49601000
3,85955444;-92,42156000
3,86321626;-90,17653000
3,86687807;-88,99217000
3,87053989;-88,97151000
3,87420171;-87,52914000
3,87786352;-87,48066000
3,88152534;-88,13816000
3,88518716;-88,99827000
3,88884897;-90,29594000
3,89251079;-88,10413000
3,89617261;-87,06055000
3,89983442;-87,44727000
3,90349624;-85,87180000
3,90715805;-84,89567000
3,91081987;-85,21321000
3,91448169;-87,27570000
3,91814350;-95,47174000
3,92180532;-105,02520000
3,92546714;-89,96213000
3,92912895;-82,29957000
3,93279077;-78,74249000
3,93645259;-77,10304000
3,94011440;-76,84502000
3,94377622;-78,11159000
3,94743803;-80,06157000
3,95109985;-83,42160000
3,95476167;-89,21543000
3,95842348;-92,32726000
3,96208530;-88,14278000
3,96574712;-84,59418000
3,96940893;-82,66275000
3,97307075;-82,85263000
3,97673257;-85,37731000
3,98039438;-87,92180000
3,98405620;-84,13623000
3,98771801;-79,18555000
3,99137983;-75,52217000
3,99504165;-74,13029000
3,99870346;-75,15891000
4,00236528;-77,21365000
4,00602710;-80,41958000
4,00968891;-87,62096000
4,01335073;-94,38304000
4,01701255;-85,96011000
4,02067436;-82,58351000
4,02433618;-80,41875000
4,02799799;-79,30479000
4,03165981;-79,70315000
4,03532163;-80,58525000
4,03898344;-81,09854000
4,04264526;-81,96306000
4,04630708;-82,73849000
4,04996889;-82,43677000
4,05363071;-82,01518000
4,05729253;-82,43524000
4,06095434;-82,94990000
4,06461616;-83,87482000
4,06827797;-84,23135000
4,07193979;-84,72623000
4,07560161;-86,84806000
4,07926342;-94,32079000
4,08292524;-92,43656000
4,08658706;-84,53143000
4,09024887;-81,32973000
4,09391069;-79,28825000
4,09757251;-79,30864000
4,10123432;-81,12049000
4,10489614;-84,55769000
4,10855795;-87,46396000
4,11221977;-84,85124000
4,11588159;-82,34560000
4,11954340;-80,25876000
4,12320522;-79,09575000
4,12686704;-78,68994000
4,13052885;-79,57966000
4,13419067;-81,86559000
4,13785249;-83,78238000
4,14151430;-86,38714000
4,14517612;-89,65183000
4,14883793;-91,09520000
4,15249975;-91,39717000
4,15616157;-89,58284000
4,15982338;-88,28182000
4,16348520;-85,59727000
4,16714702;-84,94175000
4,17080883;-86,36895000
4,17447065;-87,51424000
4,17813247;-86,30772000
4,18179428;-84,36333000
4,18545610;-82,99554000
4,18911791;-82,34303000
4,19277973;-83,88657000
4,19644155;-85,66118000
4,20010336;-85,03986000
4,20376518;-83,61687000
4,20742700;-83,66670000
4,21108881;-83,61726000
4,21475063;-83,06364000
4,21841245;-83,27393000
4,22207426;-83,79844000
4,22573608;-84,58434000
4,22939789;-84,74902000
4,23305971;-84,54112000
4,23672153;-84,55475000
4,24038334;-84,99117000
4,24404516;-84,95477000
4,24770698;-84,44588000
4,25136879;-84,22136000
4,25503061;-84,78356000
4,25869243;-87,77320000
4,26235424;-89,97041000
4,26601606;-94,53369000
4,26967787;-98,45497000
4,27333969;-89,19979000
4,27700151;-84,92631000
4,28066332;-83,54828000
4,28432514;-83,15078000
4,28798696;-82,09789000
4,29164877;-80,98091000
4,29531059;-79,54514000
4,29897240;-78,38696000
4,30263422;-77,52897000
4,30629604;-76,86660000
4,30995785;-77,14154000
4,31361967;-78,53041000
4,31728149;-80,89944000
4,32094330;-83,72232000
4,32460512;-87,33151000
4,32826694;-87,91050000
4,33192875;-83,31042000
4,33559057;-81,38846000
4,33925238;-81,29370000
4,34291420;-82,79926000
4,34657602;-85,53983000
4,35023783;-86,68853000
4,35389965;-85,49255000
4,35756147;-85,26772000
4,36122328;-84,99763000
4,36488510;-85,49829000
4,36854692;-86,35181000
4,37220873;-84,67950000
4,37587055;-83,23640000
4,37953236;-81,65543000
4,38319418;-79,03678000
4,38685600;-77,18581000
4,39051781;-76,27315000
4,39417963;-76,53613000
4,39784145;-78,47427000
4,40150326;-81,07314000
4,40516508;-84,49530000
4,40882690;-91,91043000
4,41248871;-102,36880000
4,41615053;-91,35408000
4,41981234;-90,04959000
4,42347416;-92,97429000
4,42713598;-93,44708000
4,43079779;-94,38676000
4,43445961;-94,67267000
4,43812143;-87,66681000
4,44178324;-83,85174000
4,44544506;-82,44440000
4,44910688;-82,88886000
4,45276869;-84,94672000
4,45643051;-86,12093000
4,46009232;-83,21606000
4,46375414;-80,38070000
4,46741596;-79,95513000
4,47107777;-80,18162000
4,47473959;-80,99492000
4,47840141;-83,76193000
4,48206322;-87,81425000
4,48572504;-93,77404000
4,48938686;-99,83848000
4,49304867;-88,25835000
4,49671049;-82,78117000
4,50037230;-81,01187000
4,50403412;-81,08390000
4,50769594;-82,28734000
4,51135775;-85,02639000
4,51501957;-88,86002000
4,51868139;-92,42839000
4,52234320;-94,97986000
4,52600502;-96,18356000
4,52966684;-90,02731000
4,53332865;-89,24722000
4,53699047;-89,25065000
4,54065228;-89,23492000
4,54431410;-88,04036000
4,54797592;-86,24344000
4,55163773;-86,83234000
4,55529955;-87,21420000
4,55896137;-84,44154000
4,56262318;-82,22665000
4,56628500;-81,03271000
4,56994682;-80,65963000
4,57360863;-80,56411000
4,57727045;-80,07623000
4,58093226;-80,69114000
4,58459408;-82,20849000
4,58825590;-83,31325000
4,59191771;-84,70130000
4,59557953;-85,01364000
4,59924135;-84,89948000
4,60290316;-86,47022000
4,60656498;-88,69949000
4,61022680;-94,03545000
4,61388861;-93,30934000
4,61755043;-88,56606000
4,62121224;-87,18317000
4,62487406;-87,96096000
4,62853588;-90,96123000
4,63219769;-91,09753000
4,63585951;-87,40749000
4,63952133;-86,76019000
4,64318314;-90,15063000
4,64684496;-92,07582000
4,65050678;-92,42976000
4,65416859;-91,69288000
4,65783041;-89,91619000
4,66149222;-91,50390000
4,66515404;-89,28654000
4,66881586;-85,61845000
4,67247767;-84,65053000
4,67613949;-83,05736000
4,67980131;-81,34999000
4,68346312;-80,62485000
4,68712494;-81,20087000
4,69078676;-82,49406000
4,69444857;-84,08924000
4,69811039;-87,57301000
4,70177220;-93,12379000
4,70543402;-101,22230000
4,70909584;-97,18346000
4,71275765;-88,39595000
4,71641947;-86,00379000
4,72008129;-85,77244000
4,72374310;-86,29440000
4,72740492;-86,19188000
4,73106674;-86,02234000
4,73472855;-83,64757000
4,73839037;-81,54990000
4,74205218;-81,85539000
4,74571400;-82,02679000
4,74937582;-81,43999000
4,75303763;-81,34772000
4,75669945;-81,37996000
4,76036127;-82,29560000
4,76402308;-84,12999000
4,76768490;-86,51109000
4,77134672;-89,46745000
4,77500853;-87,41154000
4,77867035;-84,59808000
4,78233216;-83,06169000
4,78599398;-82,96513000
4,78965580;-82,34437000
4,79331761;-82,05760000
4,79697943;-82,80371000
4,80064125;-83,06509000
4,80430306;-82,32574000
4,80796488;-81,75362000
4,81162670;-82,65305000
4,81528851;-83,19957000
4,81895033;-82,76035000
4,82261214;-82,45589000
4,82627396;-82,30931000
4,82993578;-82,96410000
4,83359759;-84,47694000
4,83725941;-86,20622000
4,84092123;-88,84485000
4,84458304;-91,08118000
4,84824486;-91,56564000
4,85190668;-95,42641000
4,85556849;-100,07590000
4,85923031;-98,02555000
4,86289212;-98,05310000
4,86655394;-103,50980000
4,87021576;-94,19896000
4,87387757;-89,37265000
4,87753939;-87,89291000
4,88120121;-87,68288000
4,88486302;-89,01688000
4,88852484;-92,71770000
4,89218666;-95,47108000
4,89584847;-88,70391000
4,89951029;-86,35320000
4,90317210;-87,90237000
4,90683392;-96,69076000
4,91049574;-94,35501000
4,91415755;-87,24899000
4,91781937;-85,32202000
4,92148119;-86,55315000
4,92514300;-90,70738000
4,92880482;-101,33350000
4,93246663;-96,12856000
4,93612845;-91,51215000
4,93979027;-93,46363000
4,94345208;-123,18760000
4,94711390;-90,17605000
4,95077572;-85,92022000
4,95443753;-85,26386000
4,95809935;-85,45633000
4,96176117;-85,99351000
4,96542298;-86,81512000
4,96908480;-89,56254000
4,97274661;-89,11277000
4,97640843;-86,75681000
4,98007025;-85,11916000
4,98373206;-84,82164000
4,98739388;-87,11388000
4,99105570;-87,76554000
4,99471751;-85,43884000
4,99837933;-83,16640000
5,00204115;-81,65371000
5,00570296;-80,58982000
5,00936478;-80,83752000
5,01302659;-81,63808000
5,01668841;-80,94151000
5,02035023;-80,43947000
5,02401204;-80,64822000
5,02767386;-80,58608000
5,03133568;-80,68004000
5,03499749;-80,82681000
5,03865931;-81,66058000
5,04232113;-83,53087000
5,04598294;-84,17932000
5,04964476;-83,96603000
5,05330657;-83,79409000
5,05696839;-83,70434000
5,06063021;-83,65818000
5,06429202;-82,75757000
5,06795384;-81,11696000
5,07161566;-80,31517000
5,07527747;-80,52115000
5,07893929;-80,63399000
5,08260111;-80,50926000
5,08626292;-81,09776000
5,08992474;-83,15594000
5,09358655;-86,18529000
5,09724837;-88,10939000
5,10091019;-88,38940000
5,10457200;-91,65282000
5,10823382;-92,83855000
5,11189564;-88,86390000
5,11555745;-87,81966000
5,11921927;-88,32869000
5,12288109;-88,47849000
5,12654290;-89,13395000
5,13020472;-95,77087000
5,13386653;-106,60390000
5,13752835;-96,04840000
5,14119017;-92,83022000
5,14485198;-94,99245000
5,14851380;-100,05120000
5,15217562;-94,01894000
5,15583743;-97,18987000
5,15949925;-93,91528000
5,16316107;-87,58218000
5,16682288;-84,17848000
5,17048470;-80,65044000
5,17414651;-79,29017000
5,17780833;-81,79181000
5,18147015;-90,10820000
5,18513196;-88,96185000
5,18879378;-82,56629000
5,19245560;-80,10601000
5,19611741;-78,34630000
5,19977923;-77,91762000
5,20344105;-79,02338000
5,20710286;-80,60678000
5,21076468;-82,66227000
5,21442649;-84,31415000
5,21808831;-85,54388000
5,22175013;-88,00818000
5,22541194;-88,34837000
5,22907376;-89,30046000
5,23273558;-92,49678000
5,23639739;-93,07295000
5,24005921;-93,91670000
5,24372103;-98,72776000
5,24738284;-102,13640000
5,25104466;-95,41081000
5,25470647;-93,56851000
5,25836829;-90,53883000
5,26203011;-85,42102000
5,26569192;-83,34955000
5,26935374;-82,90533000
5,27301556;-82,36699000
5,27667737;-81,82051000
5,28033919;-82,01199000
5,28400101;-83,89996000
5,28766282;-85,43572000
5,29132464;-85,47296000
5,29498645;-86,01640000
5,29864827;-86,09927000
5,30231009;-86,15551000
5,30597190;-86,57480000
5,30963372;-87,93992000
5,31329554;-85,27750000
5,31695735;-82,39780000
5,32061917;-81,06072000
5,32428099;-79,77425000
5,32794280;-78,87084000
5,33160462;-79,11156000
5,33526643;-80,76553000
5,33892825;-81,90319000
5,34259007;-82,27246000
5,34625188;-83,54740000
5,34991370;-85,79704000
5,35357552;-87,29724000
5,35723733;-88,08308000
5,36089915;-88,74500000
5,36456097;-86,94916000
5,36822278;-86,06473000
5,37188460;-85,08119000
5,37554641;-84,03636000
5,37920823;-84,12595000
5,38287005;-85,37756000
5,38653186;-87,06374000
5,39019368;-87,18967000
5,39385550;-85,44632000
5,39751731;-83,63429000
5,40117913;-83,46976000
5,40484095;-83,59839000
5,40850276;-84,14343000
5,41216458;-85,37671000
5,41582639;-85,34438000
5,41948821;-84,45502000
5,42315003;-82,95376000
5,42681184;-81,70403000
5,43047366;-80,40665000
5,43413548;-79,12986000
5,43779729;-78,28940000
5,44145911;-77,96938000
5,44512093;-78,50907000
5,44878274;-80,03745000
5,45244456;-82,05098000
5,45610637;-84,25117000
5,45976819;-86,04868000
5,46343001;-88,39899000
5,46709182;-90,29605000
5,47075364;-88,29581000
5,47441546;-87,51755000
5,47807727;-88,45654000
5,48173909;-89,99306000
5,48540091;-92,01353000
5,48906272;-91,01308000
5,49272454;-89,67368000
5,49638635;-91,73740000
5,50004817;-96,63535000
5,50370999;-103,53950000
5,50737180;-103,25020000
5,51103362;-94,46659000
5,51469544;-89,34251000
5,51835725;-87,70403000
5,52201907;-88,12521000
5,52568089;-90,03355000
5,52934270;-92,85404000
5,53300452;-94,43367000
5,53666633;-88,69862000
5,54032815;-85,11650000
5,54398997;-83,49395000
5,54765178;-83,59802000
5,55131360;-85,64835000
5,55497542;-88,87511000
5,55863723;-99,29031000
5,56229905;-94,27174000
5,56596087;-92,06522000
5,56962268;-91,05096000
5,57328450;-91,14700000
5,57694631;-97,84081000
5,58060813;-89,76520000
5,58426995;-83,42880000
5,58793176;-80,96596000
5,59159358;-79,67339000
5,59525540;-78,36428000
5,59891721;-78,85535000
5,60257903;-81,76739000
5,60624084;-85,73006000
5,60990266;-92,97405000
5,61356448;-96,20688000
5,61722629;-89,50848000
5,62088811;-87,82536000
5,62454993;-86,82033000
5,62821174;-86,13332000
5,63187356;-87,31711000
5,63553538;-89,30994000
5,63919719;-90,21804000
5,64285901;-87,74760000
5,64652082;-86,29642000
5,65018264;-85,28905000
5,65384446;-85,40508000
5,65750627;-87,03602000
5,66116809;-88,97122000
5,66482991;-92,89016000
5,66849172;-93,55213000
5,67215354;-86,69704000
5,67581536;-83,59221000
5,67947717;-81,91371000
5,68313899;-80,43759000
5,68680080;-79,27776000
5,69046262;-78,49450000
5,69412444;-78,46532000
5,69778625;-78,48824000
5,70144807;-78,21878000
5,70510989;-78,50406000
5,70877170;-79,10635000
5,71243352;-79,60909000
5,71609534;-80,85001000
5,71975715;-82,60639000
5,72341897;-85,19027000
5,72708078;-89,73296000
5,73074260;-92,36986000
5,73440442;-87,75555000
5,73806623;-84,68152000
5,74172805;-84,40852000
5,74538987;-87,41846000
5,74905168;-94,72274000
5,75271350;-98,20810000
5,75637532;-98,99976000
5,76003713;-94,11134000
5,76369895;-88,89423000
5,76736076;-85,46680000
5,77102258;-84,10352000
5,77468440;-84,17207000
5,77834621;-85,00089000
5,78200803;-85,60191000
5,78566985;-84,80058000
5,78933166;-84,46938000
5,79299348;-84,42349000
5,79665530;-83,91837000
5,80031711;-83,02672000
5,80397893;-81,40182000
5,80764074;-79,73770000
5,81130256;-78,78812000
5,81496438;-78,70982000
5,81862619;-78,52270000
5,82228801;-78,74111000
5,82594983;-79,68825000
5,82961164;-80,43919000
5,83327346;-81,34292000
5,83693528;-83,20342000
5,84059709;-84,95194000
5,84425891;-85,67963000
5,84792072;-84,60812000
5,85158254;-83,16425000
5,85524436;-81,52252000
5,85890617;-80,07822000
5,86256799;-78,80332000
5,86622981;-77,46590000
5,86989162;-76,61889000
5,87355344;-76,06889000
5,87721526;-76,13742000
5,88087707;-77,24982000
5,88453889;-78,72829000
5,88820070;-80,99255000
5,89186252;-84,22414000
5,89552434;-85,22911000
5,89918615;-84,45329000
5,90284797;-83,71954000
5,90650979;-83,56988000
5,91017160;-83,83466000
5,91383342;-83,53114000
5,91749524;-83,95007000
5,92115705;-87,66412000
5,92481887;-96,92893000
5,92848068;-87,06658000
5,93214250;-82,62562000
5,93580432;-82,00137000
5,93946613;-81,70218000
5,94312795;-81,60167000
5,94678977;-82,80816000
5,95045158;-84,79951000
5,95411340;-87,71461000
5,95777522;-89,39246000
5,96143703;-89,92339000
5,96509885;-92,51828000
5,96876066;-94,76175000
5,97242248;-96,53819000
5,97608430;-96,97446000
5,97974611;-91,08846000
5,98340793;-86,37177000
5,98706975;-84,33649000
5,99073156;-84,18194000
5,99439338;-84,57941000
5,99805520;-83,80328000
6,00171701;-82,67816000
6,00537883;-80,95430000
6,00904064;-79,76079000
6,01270246;-78,39520000
6,01636428;-77,22430000
6,02002609;-77,22463000
6,02368791;-78,04799000
6,02734973;-78,87181000
6,03101154;-79,55821000
6,03467336;-80,54657000
6,03833518;-81,74033000
6,04199699;-83,02014000
6,04565881;-83,54546000
6,04932062;-84,56561000
6,05298244;-86,90605000
6,05664426;-90,76176000
6,06030607;-92,97410000
6,06396789;-90,33631000
6,06762971;-87,87584000
6,07129152;-86,35658000
6,07495334;-84,55171000
6,07861516;-83,33922000
6,08227697;-83,28200000
6,08593879;-84,05315000
6,08960060;-85,18760000
6,09326242;-85,22903000
6,09692424;-83,96979000
6,10058605;-83,03474000
6,10424787;-84,06590000
6,10790969;-86,03043000
6,11157150;-88,54980000
6,11523332;-96,30219000
6,11889514;-100,12310000
6,12255695;-94,51240000
6,12621877;-90,19577000
6,12988058;-83,79388000
6,13354240;-80,50493000
6,13720422;-78,86199000
6,14086603;-77,65344000
6,14452785;-77,50976000
6,14818967;-78,35714000
6,15185148;-79,77435000
6,15551330;-82,07860000
6,15917512;-85,05061000
6,16283693;-89,46725000
6,16649875;-95,73602000
6,17016056;-95,90628000
6,17382238;-90,84409000
6,17748420;-90,49278000
6,18114601;-89,10209000
6,18480783;-84,69105000
6,18846965;-82,37883000
6,19213146;-81,85249000
6,19579328;-82,02163000
6,19945510;-82,30818000
6,20311691;-84,19853000
6,20677873;-88,66725000
6,21044054;-91,07152000
6,21410236;-87,29288000
6,21776418;-85,72038000
6,22142599;-85,30611000
6,22508781;-84,46196000
6,22874963;-83,54812000
6,23241144;-85,67902000
6,23607326;-96,59995000
6,23973507;-96,40546000
6,24339689;-92,39910000
6,24705871;-90,02891000
6,25072052;-86,64730000
6,25438234;-85,22208000
6,25804416;-86,25000000
6,26170597;-87,55984000
6,26536779;-87,62862000
6,26902961;-87,58811000
6,27269142;-88,28056000
6,27635324;-87,15469000
6,28001505;-84,88681000
6,28367687;-84,10043000
6,28733869;-85,59651000
6,29100050;-89,15984000
6,29466232;-91,39932000
6,29832414;-87,52075000
6,30198595;-83,31084000
6,30564777;-81,42215000
6,30930959;-81,88713000
6,31297140;-83,90698000
6,31663322;-89,05621000
6,32029503;-96,08127000
6,32395685;-86,94321000
6,32761867;-83,43101000
6,33128048;-81,04977000
6,33494230;-79,08533000
6,33860412;-78,54989000
6,34226593;-79,53545000
6,34592775;-80,90082000
6,34958957;-82,95421000
6,35325138;-88,19330000
6,35691320;-95,71384000
6,36057501;-87,15015000
6,36423683;-82,99423000
6,36789865;-82,05250000
6,37156046;-82,90711000
6,37522228;-83,67392000
6,37888410;-84,39735000
6,38254591;-85,18497000
6,38620773;-86,00631000
6,38986955;-87,45629000
6,39353136;-87,05867000
6,39719318;-84,78372000
6,40085499;-83,13968000
6,40451681;-84,10445000
6,40817863;-88,91692000
6,41184044;-95,23662000
6,41550226;-95,63741000
6,41916408;-93,84685000
6,42282589;-90,41614000
6,42648771;-86,77400000
6,43014953;-83,17085000
6,43381134;-80,85332000
6,43747316;-80,16381000
6,44113497;-81,08155000
6,44479679;-83,17081000
6,44845861;-84,43715000
6,45212042;-84,08575000
6,45578224;-84,00122000
6,45944406;-85,06759000
6,46310587;-85,77594000
6,46676769;-85,79765000
6,47042951;-86,60605000
6,47409132;-89,23283000
6,47775314;-93,56349000
6,48141495;-95,68832000
6,48507677;-98,17863000
6,48873859;-93,43815000
6,49240040;-87,21844000
6,49606222;-85,76154000
6,49972404;-85,97919000
6,50338585;-87,92421000
6,50704767;-91,96519000
6,51070949;-94,35323000
6,51437130;-91,23915000
6,51803312;-86,42677000
6,52169493;-84,61869000
6,52535675;-84,93243000
6,52901857;-84,11816000
6,53268038;-83,33237000
6,53634220;-84,71546000
6,54000402;-88,57761000
6,54366583;-94,57080000
6,54732765;-94,28459000
6,55098947;-88,19451000
6,55465128;-87,30890000
6,55831310;-88,83292000
6,56197491;-89,18953000
6,56563673;-87,44722000
6,56929855;-86,35329000
6,57296036;-87,16038000
6,57662218;-89,83497000
6,58028400;-93,39645000
6,58394581;-90,85766000
6,58760763;-86,52046000
6,59126945;-83,28073000
6,59493126;-81,28882000
6,59859308;-81,20742000
6,60225489;-82,15614000
6,60591671;-82,61803000
6,60957853;-82,49915000
6,61324034;-82,21249000
6,61690216;-83,05000000
6,62056398;-85,95013000
6,62422579;-89,08290000
6,62788761;-91,64609000
6,63154943;-93,88458000
6,63521124;-98,16547000
6,63887306;-92,14423000
6,64253487;-91,39206000
6,64619669;-95,41702000
6,64985851;-98,12160000
6,65352032;-89,61308000
6,65718214;-87,74876000
6,66084396;-90,19555000
6,66450577;-88,50030000
6,66816759;-86,03087000
6,67182941;-84,47116000
6,67549122;-82,24819000
6,67915304;-80,90279000
6,68281485;-81,18316000
6,68647667;-83,30201000
6,69013849;-87,37569000
6,69380030;-92,87963000
6,69746212;-100,90240000
6,70112394;-94,48473000
6,70478575;-89,27470000
6,70844757;-89,25455000
6,71210939;-92,70042000
6,71577120;-97,51194000
6,71943302;-87,46576000
6,72309483;-82,01886000
6,72675665;-79,44598000
6,73041847;-79,24323000
6,73408028;-81,62248000
6,73774210;-85,97522000
6,74140392;-92,57659000
6,74506573;-89,81567000
6,74872755;-85,28593000
6,75238937;-83,41084000
6,75605118;-84,67075000
6,75971300;-87,59376000
6,76337481;-87,78954000
6,76703663;-87,10029000
6,77069845;-86,62560000
6,77436026;-85,63599000
6,77802208;-83,59869000
6,78168390;-82,56901000
6,78534571;-82,54840000
6,78900753;-82,43944000
6,79266935;-83,03929000
6,79633116;-84,38033000
6,79999298;-85,77218000
6,80365479;-86,83638000
6,80731661;-85,04025000
6,81097843;-82,82455000
6,81464024;-82,20439000
6,81830206;-82,13734000
6,82196388;-82,82134000
6,82562569;-85,13832000
6,82928751;-92,36695000
6,83294933;-93,32462000
6,83661114;-86,19773000
6,84027296;-82,91310000
6,84393477;-80,36874000
6,84759659;-79,01319000
6,85125841;-78,75797000
6,85492022;-79,34448000
6,85858204;-80,33497000
6,86224386;-81,18267000
6,86590567;-81,86821000
6,86956749;-82,95729000
6,87322931;-86,02143000
6,87689112;-90,84090000
6,88055294;-104,22680000
6,88421475;-91,83289000
6,88787657;-86,79401000
6,89153839;-84,96068000
6,89520020;-84,11597000
6,89886202;-84,94140000
6,90252384;-86,47935000
6,90618565;-88,66414000
6,90984747;-91,67404000
6,91350928;-91,99391000
6,91717110;-94,92117000
6,92083292;-104,60290000
6,92449473;-101,39760000
6,92815655;-93,11402000
6,93181837;-89,92007000
6,93548018;-87,61135000
6,93914200;-87,28054000
6,94280382;-89,32906000
6,94646563;-93,06896000
6,95012745;-90,00616000
6,95378926;-86,92099000
6,95745108;-86,15736000
6,96111290;-85,16087000
6,96477471;-85,11077000
6,96843653;-85,70818000
6,97209835;-84,96461000
6,97576016;-83,02713000
6,97942198;-81,69117000
6,98308380;-82,11381000
6,98674561;-84,10349000
6,99040743;-87,91073000
6,99406924;-89,67995000
6,99773106;-87,77536000
7,00139288;-86,43098000
7,00505469;-86,67614000
7,00871651;-90,22806000
7,01237833;-95,34203000
7,01604014;-101,10550000
7,01970196;-90,61018000
7,02336378;-86,21459000
7,02702559;-83,88241000
7,03068741;-82,35741000
7,03434922;-81,77429000
7,03801104;-80,80249000
7,04167286;-80,14421000
7,04533467;-80,61779000
7,04899649;-81,88556000
7,05265831;-83,30309000
7,05632012;-83,84218000
7,05998194;-84,59325000
7,06364376;-86,07830000
7,06730557;-86,88652000
7,07096739;-88,29543000
7,07462920;-93,03771000
7,07829102;-102,60640000
7,08195284;-102,22910000
7,08561465;-93,01322000
7,08927647;-86,50582000
7,09293829;-83,76785000
7,09660010;-84,04074000
7,10026192;-86,43886000
7,10392374;-89,99706000
7,10758555;-87,46532000
7,11124737;-84,07264000
7,11490918;-82,42171000
7,11857100;-82,34158000
7,12223282;-83,01300000
7,12589463;-83,37051000
7,12955645;-82,72727000
7,13321827;-81,92038000
7,13688008;-80,71211000
7,14054190;-79,84375000
7,14420372;-79,96357000
7,14786553;-80,41411000
7,15152735;-82,39127000
7,15518916;-89,12329000
7,15885098;-101,59680000
7,16251280;-90,36633000
7,16617461;-89,31462000
7,16983643;-88,28334000
7,17349825;-87,16592000
7,17716006;-91,06365000
7,18082188;-93,87543000
7,18448370;-89,18232000
7,18814551;-91,10825000
7,19180733;-96,83934000
7,19546914;-94,53006000
7,19913096;-89,15233000
7,20279278;-86,33122000
7,20645459;-86,00923000
7,21011641;-87,32011000
7,21377823;-85,85440000
7,21744004;-83,75415000
7,22110186;-83,25774000
7,22476368;-84,11493000
7,22842549;-86,19128000
7,23208731;-94,48694000
7,23574912;-95,18683000
7,23941094;-87,55255000
7,24307276;-85,49261000
7,24673457;-86,39923000
7,25039639;-87,41294000
7,25405821;-86,41116000
7,25772002;-86,10587000
7,26138184;-84,93816000
7,26504366;-82,40721000
7,26870547;-80,65456000
7,27236729;-79,56416000
7,27602910;-78,37027000
7,27969092;-77,35856000
7,28335274;-77,10671000
7,28701455;-77,58391000
7,29067637;-78,19920000
7,29433819;-78,60632000
7,29800000;-78,44887000
7,30166182;-77,94516000
7,30532364;-77,99860000
7,30898545;-78,90578000
7,31264727;-80,69352000
7,31630908;-82,54562000
7,31997090;-84,16386000
7,32363272;-86,33086000
7,32729453;-91,17426000
7,33095635;-105,00680000
7,33461817;-90,62048000
7,33827998;-85,30669000
7,34194180;-81,47018000
7,34560362;-78,81415000
7,34926543;-77,77770000
7,35292725;-78,07916000
7,35658906;-79,59019000
7,36025088;-81,40913000
7,36391270;-82,58381000
7,36757451;-82,91431000
7,37123633;-82,37416000
7,37489815;-81,94064000
7,37855996;-82,57694000
7,38222178;-85,40824000
7,38588360;-87,36283000
7,38954541;-87,09404000
7,39320723;-85,25948000
7,39686904;-83,67420000
7,40053086;-82,49429000
7,40419268;-81,84480000
7,40785449;-80,86430000
7,41151631;-79,42008000
7,41517813;-78,88507000
7,41883994;-79,44703000
7,42250176;-81,28149000
7,42616358;-84,22229000
7,42982539;-88,37859000
7,43348721;-94,38303000
7,43714902;-90,99178000
7,44081084;-86,43576000
7,44447266;-84,07751000
7,44813447;-84,69334000
7,45179629;-87,18375000
7,45545811;-86,83182000
7,45911992;-83,47213000
7,46278174;-81,37079000
7,46644356;-79,84367000
7,47010537;-78,43419000
7,47376719;-77,79044000
7,47742900;-78,20267000
7,48109082;-79,33824000
7,48475264;-80,75044000
7,48841445;-82,77597000
7,49207627;-85,55014000
7,49573809;-87,15697000
