Frequency;Channel A
(kHz);(dBV)

0,00000000;-73,71698000
0,00366182;-65,22182000
0,00732363;-72,25597000
0,01098545;-68,55859000
0,01464727;-66,07825000
0,01830908;-70,10320000
0,02197090;-73,85127000
0,02563271;-67,04523000
0,02929453;-66,94684000
0,03295635;-71,24664000
0,03661816;-71,50520000
0,04027998;-66,38394000
0,04394180;-66,86972000
0,04760361;-72,07487000
0,05126543;-70,19124000
0,05492725;-65,38059000
0,05858906;-69,22064000
0,06225088;-76,92510000
0,06591269;-66,95980000
0,06957451;-66,28606000
0,07323633;-71,15314000
0,07689814;-73,70893000
0,08055996;-66,53749000
0,08422178;-66,31817000
0,08788359;-73,64390000
0,09154541;-70,18242000
0,09520723;-65,77026000
0,09886904;-67,40820000
0,10253086;-77,95878000
0,10619267;-68,78533000
0,10985449;-66,49712000
0,11351631;-70,17322000
0,11717812;-76,73000000
0,12083994;-68,22070000
0,12450176;-65,99030000
0,12816357;-70,54892000
0,13182539;-72,72735000
0,13548721;-66,73921000
0,13914902;-67,30304000
0,14281084;-72,35236000
0,14647265;-70,84737000
0,15013447;-65,51891000
0,15379629;-68,10724000
0,15745810;-74,27818000
0,16111992;-67,99864000
0,16478174;-66,77023000
0,16844355;-68,00555000
0,17210537;-73,93372000
0,17576719;-68,24065000
0,17942900;-65,73839000
0,18309082;-70,19437000
0,18675263;-72,24500000
0,19041445;-66,77969000
0,19407627;-66,64504000
0,19773808;-74,34498000
0,20139990;-70,21393000
0,20506172;-66,21279000
0,20872353;-67,36490000
0,21238535;-75,34384000
0,21604717;-68,09016000
0,21970898;-65,93524000
0,22337080;-69,03935000
0,22703261;-75,11357000
0,23069443;-67,28054000
0,23435625;-65,64200000
0,23801806;-71,27679000
0,24167988;-72,65687000
0,24534170;-65,71305000
0,24900351;-67,01949000
0,25266533;-72,97774000
0,25632715;-69,62395000
0,25998896;-65,26980000
0,26365078;-66,68449000
0,26731259;-77,08611000
0,27097441;-68,43550000
0,27463623;-65,11775000
0,27829804;-69,26738000
0,28195986;-73,73296000
0,28562168;-67,18861000
0,28928349;-66,07268000
0,29294531;-71,12163000
0,29660713;-71,34355000
0,30026894;-65,93581000
0,30393076;-66,99033000
0,30759257;-74,67982000
0,31125439;-68,85222000
0,31491621;-65,16591000
0,31857802;-67,73973000
0,32223984;-77,09934000
0,32590166;-67,35486000
0,32956347;-65,59039000
0,33322529;-70,96957000
0,33688710;-74,92339000
0,34054892;-66,65296000
0,34421074;-65,83134000
0,34787255;-71,83734000
0,35153437;-71,51794000
0,35519619;-66,39948000
0,35885800;-66,99377000
0,36251982;-73,50906000
0,36618164;-69,44039000
0,36984345;-65,27581000
0,37350527;-68,26292000
0,37716708;-76,02805000
0,38082890;-68,08236000
0,38449072;-65,42300000
0,38815253;-69,71963000
0,39181435;-74,98318000
0,39547617;-66,71044000
0,39913798;-65,78155000
0,40279980;-71,44010000
0,40646162;-71,31852000
0,41012343;-65,77686000
0,41378525;-66,05104000
0,41744706;-74,00310000
0,42110888;-69,38809000
0,42477070;-64,59340000
0,42843251;-68,07155000
0,43209433;-74,26543000
0,43575615;-66,59646000
0,43941796;-65,58446000
0,44307978;-69,02795000
0,44674160;-74,22993000
0,45040341;-66,01073000
0,45406523;-65,90873000
0,45772704;-70,80579000
0,46138886;-71,17772000
0,46505068;-65,46919000
0,46871249;-66,31680000
0,47237431;-74,19952000
0,47603613;-68,16621000
0,47969794;-65,34285000
0,48335976;-67,03456000
0,48702158;-76,14602000
0,49068339;-67,01960000
0,49434521;-65,09883000
0,49800702;-68,39332000
0,50166884;-73,97930000
0,50533066;-65,86031000
0,50899247;-65,18890000
0,51265429;-72,38516000
0,51631611;-71,84893000
0,51997792;-65,37021000
0,52363974;-66,24988000
0,52730156;-75,11153000
0,53096337;-68,67232000
0,53462519;-64,95690000
0,53828700;-66,96896000
0,54194882;-77,27943000
0,54561064;-66,49390000
0,54927245;-64,99739000
0,55293427;-68,61591000
0,55659609;-74,18542000
0,56025790;-65,27594000
0,56391972;-64,75816000
0,56758154;-72,59869000
0,57124335;-69,69263000
0,57490517;-65,24216000
0,57856698;-65,52781000
0,58222880;-74,47411000
0,58589062;-67,66212000
0,58955243;-65,22769000
0,59321425;-67,02206000
0,59687607;-76,21927000
0,60053788;-67,44097000
0,60419970;-63,89780000
0,60786152;-68,41685000
0,61152333;-73,93694000
0,61518515;-64,41757000
0,61884696;-65,04407000
0,62250878;-71,65778000
0,62617060;-70,27106000
0,62983241;-63,98484000
0,63349423;-65,48413000
0,63715605;-75,12251000
0,64081786;-68,62305000
0,64447968;-63,47579000
0,64814150;-67,69450000
0,65180331;-77,77392000
0,65546513;-66,00934000
0,65912694;-64,38831000
0,66278876;-68,55528000
0,66645058;-72,10339000
0,67011239;-65,81877000
0,67377421;-63,91992000
0,67743603;-70,58606000
0,68109784;-69,60043000
0,68475966;-64,53370000
0,68842148;-65,00611000
0,69208329;-74,63035000
0,69574511;-66,79194000
0,69940692;-63,95062000
0,70306874;-66,76920000
0,70673056;-79,19162000
0,71039237;-65,25725000
0,71405419;-63,80302000
0,71771601;-68,54132000
0,72137782;-74,23006000
0,72503964;-64,86884000
0,72870146;-63,81873000
0,73236327;-71,06658000
0,73602509;-69,39102000
0,73968690;-63,94012000
0,74334872;-65,01392000
0,74701054;-73,98179000
0,75067235;-67,05111000
0,75433417;-63,34409000
0,75799599;-66,38436000
0,76165780;-77,39991000
0,76531962;-65,15765000
0,76898144;-63,10234000
0,77264325;-68,56747000
0,77630507;-72,60602000
0,77996688;-63,86502000
0,78362870;-63,82083000
0,78729052;-71,50957000
0,79095233;-68,78949000
0,79461415;-63,68202000
0,79827597;-64,09166000
0,80193778;-77,45707000
0,80559960;-66,93343000
0,80926142;-63,05261000
0,81292323;-65,57729000
0,81658505;-77,96086000
0,82024686;-65,12187000
0,82390868;-62,89618000
0,82757050;-68,12651000
0,83123231;-73,11044000
0,83489413;-63,57617000
0,83855595;-63,56440000
0,84221776;-71,20058000
0,84587958;-69,13316000
0,84954140;-62,61340000
0,85320321;-64,54093000
0,85686503;-75,15094000
0,86052684;-66,55669000
0,86418866;-63,19986000
0,86785048;-66,03135000
0,87151229;-77,06869000
0,87517411;-64,58647000
0,87883593;-62,55642000
0,88249774;-67,22703000
0,88615956;-72,15989000
0,88982138;-62,97995000
0,89348319;-63,28587000
0,89714501;-71,73454000
0,90080682;-68,45192000
0,90446864;-62,58411000
0,90813046;-64,17391000
0,91179227;-74,51629000
0,91545409;-65,42331000
0,91911591;-62,40292000
0,92277772;-65,22192000
0,92643954;-76,07308000
0,93010136;-64,63811000
0,93376317;-62,60105000
0,93742499;-66,72263000
0,94108680;-72,74581000
0,94474862;-63,07968000
0,94841044;-62,44377000
0,95207225;-70,78811000
0,95573407;-69,85672000
0,95939589;-61,86882000
0,96305770;-63,03751000
0,96671952;-75,49617000
0,97038134;-64,95453000
0,97404315;-61,93581000
0,97770497;-64,52055000
0,98136678;-77,90015000
0,98502860;-63,39300000
0,98869042;-61,97817000
0,99235223;-66,50694000
0,99601405;-72,38960000
0,99967587;-62,26946000
1,00333768;-61,90193000
1,00699950;-70,57690000
1,01066131;-67,43158000
1,01432313;-61,86859000
1,01798495;-63,28339000
1,02164676;-74,18266000
1,02530858;-65,02734000
1,02897040;-61,53912000
1,03263221;-63,63884000
1,03629403;-74,17800000
1,03995585;-63,10787000
1,04361766;-61,59801000
1,04727948;-66,17273000
1,05094129;-72,30731000
1,05460311;-61,72145000
1,05826493;-61,42899000
1,06192674;-70,08432000
1,06558856;-67,85014000
1,06925038;-60,76742000
1,07291219;-62,24825000
1,07657401;-77,64667000
1,08023583;-64,34801000
1,08389764;-61,25304000
1,08755946;-63,54209000
1,09122127;-77,25899000
1,09488309;-62,84543000
1,09854491;-60,41078000
1,10220672;-66,06235000
1,10586854;-71,08913000
1,10953036;-61,23993000
1,11319217;-61,04549000
1,11685399;-69,84804000
1,12051581;-67,37209000
1,12417762;-60,62827000
1,12783944;-61,78804000
1,13150125;-72,72851000
1,13516307;-63,61733000
1,13882489;-60,21568000
1,14248670;-63,23262000
1,14614852;-77,06351000
1,14981034;-61,96827000
1,15347215;-60,38791000
1,15713397;-64,77221000
1,16079579;-69,69436000
1,16445760;-60,57872000
1,16811942;-60,76939000
1,17178123;-68,79026000
1,17544305;-66,85565000
1,17910487;-59,61197000
1,18276668;-61,57393000
1,18642850;-75,49390000
1,19009032;-63,54736000
1,19375213;-59,77681000
1,19741395;-62,36843000
1,20107577;-73,45940000
1,20473758;-61,79356000
1,20839940;-59,58408000
1,21206121;-64,57605000
1,21572303;-69,69217000
1,21938485;-60,37817000
1,22304666;-59,87731000
1,22670848;-68,65976000
1,23037030;-66,24274000
1,23403211;-59,38430000
1,23769393;-60,72421000
1,24135575;-74,73449000
1,24501756;-62,95311000
1,24867938;-58,96437000
1,25234119;-62,24335000
1,25600301;-75,06176000
1,25966483;-61,06727000
1,26332664;-59,06322000
1,26698846;-63,86590000
1,27065028;-68,91183000
1,27431209;-59,81173000
1,27797391;-59,41934000
1,28163573;-66,60548000
1,28529754;-65,00167000
1,28895936;-58,92797000
1,29262117;-59,93269000
1,29628299;-73,21675000
1,29994481;-62,26380000
1,30360662;-58,13299000
1,30726844;-61,46172000
1,31093026;-79,72859000
1,31459207;-60,09569000
1,31825389;-58,34626000
1,32191571;-63,43180000
1,32557752;-69,69223000
1,32923934;-58,90373000
1,33290115;-58,19793000
1,33656297;-67,38750000
1,34022479;-64,13529000
1,34388660;-57,99120000
1,34754842;-59,69579000
1,35121024;-72,21160000
1,35487205;-61,63995000
1,35853387;-57,90598000
1,36219569;-60,25729000
1,36585750;-77,29408000
1,36951932;-59,65212000
1,37318113;-57,51125000
1,37684295;-62,11089000
1,38050477;-68,13116000
1,38416658;-58,06944000
1,38782840;-58,01630000
1,39149022;-65,42956000
1,39515203;-63,22411000
1,39881385;-57,44356000
1,40247567;-58,58421000
1,40613748;-72,03999000
1,40979930;-61,17396000
1,41346111;-56,78123000
1,41712293;-59,61401000
1,42078475;-77,42243000
1,42444656;-58,90103000
1,42810838;-56,72129000
1,43177020;-61,33710000
1,43543201;-68,04643000
1,43909383;-57,37940000
1,44275565;-56,82198000
1,44641746;-64,72652000
1,45007928;-62,92110000
1,45374109;-56,52184000
1,45740291;-57,49920000
1,46106473;-71,17712000
1,46472654;-60,16384000
1,46838836;-55,89682000
1,47205018;-58,50326000
1,47571199;-77,12144000
1,47937381;-57,96692000
1,48303563;-55,78430000
1,48669744;-60,12932000
1,49035926;-66,54476000
1,49402107;-56,41375000
1,49768289;-55,99032000
1,50134471;-63,55527000
1,50500652;-61,90655000
1,50866834;-55,49319000
1,51233016;-56,61700000
1,51599197;-70,22832000
1,51965379;-59,17208000
1,52331561;-54,99819000
1,52697742;-57,40211000
1,53063924;-77,76013000
1,53430105;-56,82689000
1,53796287;-54,44545000
1,54162469;-59,59446000
1,54528650;-65,20408000
1,54894832;-55,50778000
1,55261014;-54,73057000
1,55627195;-63,16541000
1,55993377;-60,86945000
1,56359559;-54,49291000
1,56725740;-55,53938000
1,57091922;-69,12342000
1,57458103;-57,89719000
1,57824285;-53,86797000
1,58190467;-56,77489000
1,58556648;-77,93039000
1,58922830;-55,98375000
1,59289012;-53,53859000
1,59655193;-58,67322000
1,60021375;-65,90961000
1,60387557;-54,38866000
1,60753738;-53,64296000
1,61119920;-61,23305000
1,61486101;-60,01881000
1,61852283;-53,26650000
1,62218465;-54,11409000
1,62584646;-67,42538000
1,62950828;-56,60297000
1,63317010;-52,64582000
1,63683191;-55,26481000
1,64049373;-75,35464000
1,64415554;-54,90593000
1,64781736;-52,22454000
1,65147918;-56,78607000
1,65514099;-64,31436000
1,65880281;-52,93850000
1,66246463;-52,29721000
1,66612644;-59,85068000
1,66978826;-58,65341000
1,67345008;-51,87698000
1,67711189;-52,70175000
1,68077371;-66,26077000
1,68443552;-55,45002000
1,68809734;-51,16138000
1,69175916;-53,77974000
1,69542097;-75,84696000
1,69908279;-53,02781000
1,70274461;-50,68580000
1,70640642;-55,36244000
1,71006824;-62,79726000
1,71373006;-51,42067000
1,71739187;-50,67176000
1,72105369;-58,22523000
1,72471550;-57,13093000
1,72837732;-50,14421000
1,73203914;-51,12875000
1,73570095;-64,47969000
1,73936277;-53,90627000
1,74302459;-49,29377000
1,74668640;-52,02436000
1,75034822;-75,14008000
1,75401004;-51,25232000
1,75767185;-48,93666000
1,76133367;-53,55619000
1,76499548;-61,04444000
1,76865730;-49,61578000
1,77231912;-48,68626000
1,77598093;-56,67726000
1,77964275;-55,41244000
1,78330457;-48,27386000
1,78696638;-49,08735000
1,79062820;-61,63749000
1,79429002;-51,74932000
1,79795183;-47,29290000
1,80161365;-49,75243000
1,80527546;-76,51475000
1,80893728;-49,09302000
1,81259910;-46,71190000
1,81626091;-51,05570000
1,81992273;-59,15556000
1,82358455;-47,21119000
1,82724636;-46,27197000
1,83090818;-53,69970000
1,83457000;-52,85659000
1,83823181;-45,68362000
1,84189363;-46,38472000
1,84555544;-58,76494000
1,84921726;-49,11391000
1,85287908;-44,38841000
1,85654089;-46,86029000
1,86020271;-76,83774000
1,86386453;-46,16400000
1,86752634;-43,54543000
1,87118816;-48,03034000
1,87484998;-56,18102000
1,87851179;-43,92522000
1,88217361;-42,91100000
1,88583542;-50,17567000
1,88949724;-49,45219000
1,89315906;-42,00111000
1,89682087;-42,60246000
1,90048269;-55,00124000
1,90414451;-45,14695000
1,90780632;-40,32168000
1,91146814;-42,66709000
1,91512996;-77,02968000
1,91879177;-41,74070000
1,92245359;-38,84318000
1,92611540;-43,11557000
1,92977722;-51,42633000
1,93343904;-38,69594000
1,93710085;-37,40073000
1,94076267;-44,38022000
1,94442449;-43,65570000
1,94808630;-35,70219000
1,95174812;-35,91408000
1,95540994;-47,80841000
1,95907175;-37,80755000
1,96273357;-32,44861000
1,96639538;-34,09236000
1,97005720;-78,65096000
1,97371902;-31,92079000
1,97738083;-28,09665000
1,98104265;-31,15943000
1,98470447;-38,29478000
1,98836628;-23,52925000
1,99202810;-19,42791000
1,99568992;-21,45378000
1,99935173;-5,21611500
2,00301355;-10,91424000
2,00667536;-18,64073000
2,01033718;-34,74702000
2,01399900;-28,49165000
2,01766081;-25,90642000
2,02132263;-30,03293000
2,02498445;-74,79163000
2,02864626;-32,64847000
2,03230808;-31,13778000
2,03596990;-36,57943000
2,03963171;-46,64398000
2,04329353;-34,92556000
2,04695534;-34,75553000
2,05061716;-42,63467000
2,05427898;-43,56316000
2,05794079;-36,58018000
2,06160261;-37,89742000
2,06526443;-50,44119000
2,06892624;-42,34241000
2,07258806;-38,14920000
2,07624988;-41,01521000
2,07991169;-78,97384000
2,08357351;-42,00414000
2,08723532;-39,73804000
2,09089714;-44,46189000
2,09455896;-54,52105000
2,09822077;-42,00438000
2,10188259;-41,41681000
2,10554441;-48,76164000
2,10920622;-49,57531000
2,11286804;-42,37566000
2,11652986;-43,34961000
2,12019167;-55,31025000
2,12385349;-47,48011000
2,12751530;-42,93091000
2,13117712;-45,64804000
2,13483894;-76,22775000
2,13850075;-46,27470000
2,14216257;-43,91405000
2,14582439;-48,47906000
2,14948620;-58,38295000
2,15314802;-45,86494000
2,15680984;-45,10258000
2,16047165;-52,22822000
2,16413347;-53,12084000
2,16779528;-45,72188000
2,17145710;-46,65227000
2,17511892;-58,80935000
2,17878073;-50,80019000
2,18244255;-45,99686000
2,18610437;-48,64763000
2,18976618;-77,19313000
2,19342800;-49,20243000
2,19708982;-46,70155000
2,20075163;-51,28428000
2,20441345;-61,65693000
2,20807526;-48,47974000
2,21173708;-47,65247000
2,21539890;-54,96272000
2,21906071;-55,91994000
2,22272253;-48,27324000
2,22638435;-48,94739000
2,23004616;-60,72513000
2,23370798;-53,09590000
2,23736980;-48,38712000
2,24103161;-50,70525000
2,24469343;-75,63078000
2,24835524;-51,45033000
2,25201706;-48,79185000
2,25567888;-52,95601000
2,25934069;-63,31702000
2,26300251;-50,49751000
2,26666433;-49,69070000
2,27032614;-56,56258000
2,27398796;-58,18016000
2,27764978;-50,13414000
2,28131159;-50,64745000
2,28497341;-61,97173000
2,28863522;-54,86418000
2,29229704;-49,99950000
2,29595886;-52,42339000
2,29962067;-77,92891000
2,30328249;-53,18850000
2,30694431;-50,37656000
2,31060612;-54,59519000
2,31426794;-65,57074000
2,31792975;-51,92039000
2,32159157;-51,16570000
2,32525339;-58,12184000
2,32891520;-59,29243000
2,33257702;-51,67063000
2,33623884;-52,23708000
2,33990065;-63,46112000
2,34356247;-56,29639000
2,34722429;-51,54522000
2,35088610;-53,75726000
2,35454792;-82,91692000
2,35820973;-54,74002000
2,36187155;-51,83673000
2,36553337;-56,04410000
2,36919518;-67,17892000
2,37285700;-53,48240000
2,37651882;-52,54222000
2,38018063;-59,26606000
2,38384245;-61,05047000
2,38750427;-52,93737000
2,39116608;-53,47870000
2,39482790;-64,88648000
2,39848971;-57,90945000
2,40215153;-52,80071000
2,40581335;-55,08047000
2,40947516;-75,02180000
2,41313698;-55,72786000
2,41679880;-53,01989000
2,42046061;-57,05862000
2,42412243;-68,14790000
2,42778425;-54,73392000
2,43144606;-53,55492000
2,43510788;-60,48037000
2,43876969;-62,51225000
2,44243151;-54,19931000
2,44609333;-54,30126000
2,44975514;-65,41891000
2,45341696;-58,88172000
2,45707878;-53,77905000
2,46074059;-56,14667000
2,46440241;-76,66686000
2,46806423;-56,98470000
2,47172604;-54,05802000
2,47538786;-57,90022000
2,47904967;-69,66003000
2,48271149;-55,77401000
2,48637331;-54,54372000
2,49003512;-61,14712000
2,49369694;-63,35134000
2,49735876;-55,17554000
2,50102057;-55,33241000
2,50468239;-65,92840000
2,50834421;-59,87937000
2,51200602;-54,73999000
2,51566784;-57,02540000
2,51932965;-75,32591000
2,52299147;-57,95979000
2,52665329;-54,81377000
2,53031510;-58,78142000
2,53397692;-71,50418000
2,53763874;-56,57274000
2,54130055;-55,31216000
2,54496237;-61,65176000
2,54862419;-64,29680000
2,55228600;-55,72464000
2,55594782;-56,11811000
2,55960963;-67,22001000
2,56327145;-60,51777000
2,56693327;-55,51937000
2,57059508;-58,05140000
2,57425690;-76,04231000
2,57791872;-58,78022000
2,58158053;-55,66326000
2,58524235;-59,75874000
2,58890417;-72,12843000
2,59256598;-57,34480000
2,59622780;-56,26484000
2,59988961;-62,71950000
2,60355143;-66,00398000
2,60721325;-56,44267000
2,61087506;-57,04899000
2,61453688;-67,42483000
2,61819870;-61,44201000
2,62186051;-56,57635000
2,62552233;-58,17142000
2,62918415;-75,82501000
2,63284596;-59,77070000
2,63650778;-56,33987000
2,64016959;-60,36478000
2,64383141;-73,27157000
2,64749323;-58,17870000
2,65115504;-56,99470000
2,65481686;-62,86091000
2,65847868;-65,76058000
2,66214049;-57,46849000
2,66580231;-57,77286000
2,66946413;-67,84995000
2,67312594;-62,73012000
2,67678776;-57,09064000
2,68044957;-58,86951000
2,68411139;-74,97812000
2,68777321;-59,93280000
2,69143502;-57,00770000
2,69509684;-61,25394000
2,69875866;-72,90394000
2,70242047;-59,09162000
2,70608229;-57,35481000
2,70974411;-64,01383000
2,71340592;-67,28703000
2,71706774;-58,17391000
2,72072955;-58,00311000
2,72439137;-69,21082000
2,72805319;-63,59858000
2,73171500;-57,54461000
2,73537682;-59,69540000
2,73903864;-76,92437000
2,74270045;-61,08426000
2,74636227;-57,42518000
2,75002409;-61,47348000
2,75368590;-74,57887000
2,75734772;-59,59443000
2,76100953;-57,88515000
2,76467135;-64,27263000
2,76833317;-67,42387000
2,77199498;-58,45316000
2,77565680;-59,13229000
2,77931862;-68,36141000
2,78298043;-63,92947000
2,78664225;-58,31320000
2,79030407;-60,08296000
2,79396588;-76,49599000
2,79762770;-61,34133000
2,80128951;-58,19744000
2,80495133;-61,70650000
2,80861315;-74,74847000
2,81227496;-60,21256000
2,81593678;-58,66129000
2,81959860;-64,36322000
2,82326041;-67,92383000
2,82692223;-59,21458000
2,83058405;-59,22604000
2,83424586;-69,07365000
2,83790768;-64,17461000
2,84156949;-58,92032000
2,84523131;-60,53485000
2,84889313;-75,76171000
2,85255494;-61,77663000
2,85621676;-58,72454000
2,85987858;-62,43906000
2,86354039;-76,46099000
2,86720221;-60,42000000
2,87086403;-59,26525000
2,87452584;-65,20184000
2,87818766;-68,70441000
2,88184947;-59,74590000
2,88551129;-60,07903000
2,88917311;-68,61359000
2,89283492;-65,39134000
2,89649674;-58,98894000
2,90015856;-61,07156000
2,90382037;-76,37949000
2,90748219;-62,78011000
2,91114401;-59,20860000
2,91480582;-62,57880000
2,91846764;-76,53527000
2,92212945;-61,14864000
2,92579127;-59,30632000
2,92945309;-66,52681000
2,93311490;-69,69199000
2,93677672;-60,48709000
2,94043854;-60,09043000
2,94410035;-69,73623000
2,94776217;-65,32790000
2,95142399;-59,67079000
2,95508580;-61,63412000
2,95874762;-77,40001000
2,96240943;-63,33858000
2,96607125;-59,81686000
2,96973307;-62,97178000
2,97339488;-77,37547000
2,97705670;-61,73763000
2,98071852;-60,00223000
2,98438033;-65,72266000
2,98804215;-69,20415000
2,99170396;-60,97226000
2,99536578;-60,60949000
2,99902760;-69,37357000
3,00268941;-65,78822000
3,00635123;-60,12905000
3,01001305;-62,06091000
3,01367486;-79,09921000
3,01733668;-63,74474000
3,02099850;-60,51059000
3,02466031;-63,72284000
3,02832213;-81,35480000
3,03198394;-62,11816000
3,03564576;-60,08699000
3,03930758;-66,08162000
3,04296939;-69,92545000
3,04663121;-61,03945000
3,05029303;-61,41404000
3,05395484;-69,77905000
3,05761666;-66,20799000
3,06127848;-60,90346000
3,06494029;-62,07703000
3,06860211;-77,40491000
3,07226392;-64,27792000
3,07592574;-60,47560000
3,07958756;-64,11195000
3,08324937;-82,58955000
3,08691119;-62,35209000
3,09057301;-60,77438000
3,09423482;-66,39267000
3,09789664;-70,62759000
3,10155846;-61,58016000
3,10522027;-61,48963000
3,10888209;-70,24562000
3,11254390;-66,73378000
3,11620572;-60,87863000
3,11986754;-62,81188000
3,12352935;-77,69899000
3,12719117;-64,73276000
3,13085299;-60,80093000
3,13451480;-64,54044000
3,13817662;-81,63716000
3,14183844;-62,90769000
3,14550025;-61,48785000
3,14916207;-66,24576000
3,15282388;-72,21383000
3,15648570;-61,81924000
3,16014752;-61,45844000
3,16380933;-70,40366000
3,16747115;-67,13063000
3,17113297;-61,42418000
3,17479478;-63,03786000
3,17845660;-75,78776000
3,18211842;-64,65734000
3,18578023;-61,27026000
3,18944205;-64,46023000
3,19310386;-78,27496000
3,19676568;-63,11562000
3,20042750;-61,41121000
3,20408931;-66,83440000
3,20775113;-71,52460000
3,21141295;-62,25870000
3,21507476;-62,17271000
3,21873658;-71,06416000
3,22239840;-67,97997000
3,22606021;-61,91368000
3,22972203;-62,79721000
3,23338384;-76,04090000
3,23704566;-64,94728000
3,24070748;-61,64894000
3,24436929;-64,09486000
3,24803111;-78,37773000
3,25169293;-63,33305000
3,25535474;-61,97853000
3,25901656;-67,30903000
3,26267838;-71,39635000
3,26634019;-62,36917000
3,27000201;-62,77189000
3,27366382;-71,57318000
3,27732564;-68,17707000
3,28098746;-62,14278000
3,28464927;-63,70954000
3,28831109;-78,69839000
3,29197291;-65,38654000
3,29563472;-61,93386000
3,29929654;-65,28899000
3,30295836;-81,39919000
3,30662017;-64,21529000
3,31028199;-62,11565000
3,31394380;-68,00298000
3,31760562;-72,53790000
3,32126744;-63,11835000
3,32492925;-63,07616000
3,32859107;-70,24842000
3,33225289;-68,10396000
3,33591470;-62,55730000
3,33957652;-64,03040000
3,34323834;-75,79495000
3,34690015;-66,26391000
3,35056197;-61,73097000
3,35422378;-65,94930000
3,35788560;-82,00077000
3,36154742;-64,22458000
3,36520923;-62,23896000
3,36887105;-68,59228000
3,37253287;-72,85615000
3,37619468;-63,41189000
3,37985650;-63,06597000
3,38351832;-72,26248000
3,38718013;-68,83789000
3,39084195;-63,29736000
3,39450376;-64,13401000
3,39816558;-76,17319000
3,40182740;-66,38612000
3,40548921;-62,83523000
3,40915103;-65,14159000
3,41281285;-82,21172000
3,41647466;-64,78975000
3,42013648;-62,43925000
3,42379830;-68,24228000
3,42746011;-73,25629000
3,43112193;-63,72655000
3,43478374;-63,44330000
3,43844556;-71,26321000
3,44210738;-69,49964000
3,44576919;-62,86961000
3,44943101;-64,06908000
3,45309283;-79,80160000
3,45675464;-67,06065000
3,46041646;-62,70512000
3,46407828;-65,85597000
3,46774009;-83,97272000
3,47140191;-64,75333000
3,47506372;-62,93619000
3,47872554;-68,05543000
3,48238736;-73,09768000
3,48604917;-63,55014000
3,48971099;-63,95958000
3,49337281;-73,02560000
3,49703462;-70,01781000
3,50069644;-63,40504000
3,50435826;-64,28307000
3,50802007;-77,83200000
3,51168189;-66,85757000
3,51534370;-63,01479000
3,51900552;-66,73302000
3,52266734;-79,87791000
3,52632915;-65,24542000
3,52999097;-63,67377000
3,53365279;-68,46111000
3,53731460;-75,29021000
3,54097642;-64,38592000
3,54463824;-63,52523000
3,54830005;-72,27217000
3,55196187;-69,68593000
3,55562368;-64,26205000
3,55928550;-64,54704000
3,56294732;-77,21741000
3,56660913;-67,44599000
3,57027095;-62,98111000
3,57393277;-66,95312000
3,57759458;-87,28362000
3,58125640;-65,70250000
3,58491822;-63,44709000
3,58858003;-68,90665000
3,59224185;-76,03418000
3,59590366;-64,17375000
3,59956548;-64,29782000
3,60322730;-72,05897000
3,60688911;-70,17058000
3,61055093;-64,07947000
3,61421275;-65,31200000
3,61787456;-76,82178000
3,62153638;-67,71337000
3,62519819;-63,26352000
3,62886001;-66,68578000
3,63252183;-85,31306000
3,63618364;-66,01624000
3,63984546;-63,76585000
3,64350728;-69,51730000
3,64716909;-74,55167000
3,65083091;-64,74305000
3,65449273;-64,72259000
3,65815454;-71,05861000
3,66181636;-70,67860000
3,66547817;-64,48328000
3,66913999;-65,26569000
3,67280181;-76,77922000
3,67646362;-68,05789000
3,68012544;-63,63143000
3,68378726;-67,81821000
3,68744907;-83,16675000
3,69111089;-67,18301000
3,69477271;-63,94167000
3,69843452;-68,52872000
3,70209634;-77,89621000
3,70575815;-64,51082000
3,70941997;-64,88663000
3,71308179;-72,50389000
3,71674360;-71,47020000
3,72040542;-64,66043000
3,72406724;-65,50474000
3,72772905;-76,27081000
3,73139087;-68,41328000
3,73505269;-64,07062000
3,73871450;-66,91632000
3,74237632;-83,18875000
3,74603813;-66,89260000
3,74969995;-64,31984000
3,75336177;-69,25714000
3,75702358;-81,75111000
3,76068540;-65,33698000
3,76434722;-64,14601000
3,76800903;-71,18771000
3,77167085;-70,95292000
3,77533267;-64,22968000
3,77899448;-65,92725000
3,78265630;-76,99489000
3,78631811;-68,28882000
3,78997993;-64,35677000
3,79364175;-66,61644000
3,79730356;-84,16909000
3,80096538;-66,00860000
3,80462720;-64,38331000
3,80828901;-69,83847000
3,81195083;-76,74770000
3,81561265;-65,56568000
3,81927446;-64,60803000
3,82293628;-72,64217000
3,82659809;-71,44144000
3,83025991;-64,75665000
3,83392173;-65,74644000
3,83758354;-77,11002000
3,84124536;-69,03197000
3,84490718;-64,08233000
3,84856899;-67,31606000
3,85223081;-77,00124000
3,85589263;-67,10278000
3,85955444;-64,41348000
3,86321626;-69,75430000
3,86687807;-75,07262000
3,87053989;-65,92155000
3,87420171;-65,47857000
3,87786352;-71,62010000
3,88152534;-72,51691000
3,88518716;-64,78404000
3,88884897;-65,75519000
3,89251079;-77,62946000
3,89617261;-68,37569000
3,89983442;-64,57084000
3,90349624;-67,53024000
3,90715805;-83,92233000
3,91081987;-67,74344000
3,91448169;-64,62390000
3,91814350;-69,43285000
3,92180532;-76,35177000
3,92546714;-65,87359000
3,92912895;-65,36790000
3,93279077;-74,77568000
3,93645259;-73,18594000
3,94011440;-65,52551000
3,94377622;-65,90811000
3,94743803;-78,43794000
3,95109985;-68,85796000
3,95476167;-65,35497000
3,95842348;-67,56432000
3,96208530;-81,07501000
3,96574712;-66,72414000
3,96940893;-64,83950000
3,97307075;-69,79912000
3,97673257;-75,20387000
3,98039438;-65,89210000
3,98405620;-66,20925000
3,98771801;-73,52744000
3,99137983;-72,15289000
3,99504165;-65,10408000
3,99870346;-69,31343000
4,00236528;-72,88207000
4,00602710;-70,10290000
4,00968891;-65,20773000
4,01335073;-67,49950000
4,01701255;-79,12032000
4,02067436;-68,33570000
4,02433618;-65,52128000
4,02799799;-69,49458000
4,03165981;-76,40581000
4,03532163;-66,58650000
4,03898344;-66,17857000
4,04264526;-70,95604000
4,04630708;-72,00528000
4,04996889;-66,08991000
4,05363071;-66,03397000
4,05729253;-78,36137000
4,06095434;-69,87057000
4,06461616;-65,60324000
4,06827797;-67,91611000
4,07193979;-85,25323000
4,07560161;-68,15611000
4,07926342;-65,31114000
4,08292524;-69,22710000
4,08658706;-77,90540000
4,09024887;-66,44032000
4,09391069;-66,12344000
4,09757251;-73,13518000
4,10123432;-73,78886000
4,10489614;-66,22790000
4,10855795;-66,33040000
4,11221977;-76,07363000
4,11588159;-70,16904000
4,11954340;-65,19230000
4,12320522;-67,73236000
4,12686704;-85,59951000
4,13052885;-67,48299000
4,13419067;-66,24611000
4,13785249;-69,09585000
4,14151430;-77,32495000
4,14517612;-67,13317000
4,14883793;-66,19540000
4,15249975;-71,49336000
4,15616157;-71,83799000
4,15982338;-66,22901000
4,16348520;-67,29676000
4,16714702;-77,84052000
4,17080883;-70,78407000
4,17447065;-65,77089000
4,17813247;-67,54150000
4,18179428;-78,56914000
4,18545610;-67,88171000
4,18911791;-66,32873000
4,19277973;-70,05568000
4,19644155;-83,29776000
4,20010336;-66,79733000
4,20376518;-65,25807000
4,20742700;-73,72404000
4,21108881;-73,05173000
4,21475063;-66,61637000
4,21841245;-67,35313000
4,22207426;-74,97630000
4,22573608;-71,17455000
4,22939789;-65,63804000
4,23305971;-67,89369000
4,23672153;-82,34717000
4,24038334;-68,48871000
4,24404516;-65,93037000
4,24770698;-69,68817000
4,25136879;-80,94313000
4,25503061;-67,34286000
4,25869243;-65,86588000
4,26235424;-72,29778000
4,26601606;-73,75369000
4,26967787;-66,41103000
4,27333969;-66,68584000
4,27700151;-77,35832000
4,28066332;-70,63593000
4,28432514;-66,29893000
4,28798696;-67,63023000
4,29164877;-86,31100000
4,29531059;-68,67397000
4,29897240;-66,25658000
4,30263422;-68,84432000
4,30629604;-79,58505000
4,30995785;-66,95901000
4,31361967;-65,73505000
4,31728149;-74,76382000
4,32094330;-73,41460000
4,32460512;-66,75266000
4,32826694;-67,24654000
4,33192875;-76,96112000
4,33559057;-71,64270000
4,33925238;-66,08826000
4,34291420;-68,43269000
4,34657602;-84,57078000
4,35023783;-68,02816000
4,35389965;-67,42559000
4,35756147;-69,19675000
4,36122328;-77,79459000
4,36488510;-68,32051000
4,36854692;-66,57449000
4,37220873;-72,20822000
4,37587055;-74,56480000
4,37953236;-66,56526000
4,38319418;-67,05717000
4,38685600;-79,02232000
4,39051781;-72,80539000
4,39417963;-66,61750000
4,39784145;-67,31332000
4,40150326;-80,69244000
4,40516508;-69,12344000
4,40882690;-65,54467000
4,41248871;-70,08685000
4,41615053;-80,12526000
4,41981234;-67,06693000
4,42347416;-66,92138000
4,42713598;-72,82601000
4,43079779;-75,56223000
4,43445961;-66,35905000
4,43812143;-67,02776000
4,44178324;-79,74524000
4,44544506;-72,15857000
4,44910688;-66,45457000
4,45276869;-67,91518000
4,45643051;-84,22324000
4,46009232;-69,70361000
4,46375414;-65,32083000
4,46741596;-71,39548000
4,47107777;-79,27533000
4,47473959;-67,71979000
4,47840141;-66,74005000
4,48206322;-74,18988000
4,48572504;-74,95596000
4,48938686;-66,90918000
4,49304867;-68,15662000
4,49671049;-76,25456000
4,50037230;-71,93823000
4,50403412;-67,17017000
4,50769594;-68,41613000
4,51135775;-81,71991000
4,51501957;-70,27629000
4,51868139;-66,32721000
4,52234320;-69,39829000
4,52600502;-79,31416000
4,52966684;-67,98965000
4,53332865;-66,72337000
4,53699047;-73,54995000
4,54065228;-78,48569000
4,54431410;-67,18884000
4,54797592;-65,91045000
4,55163773;-77,93525000
4,55529955;-70,96712000
4,55896137;-66,81735000
4,56262318;-68,16806000
4,56628500;-90,76459000
4,56994682;-69,26305000
4,57360863;-66,19466000
4,57727045;-70,37800000
4,58093226;-79,12772000
4,58459408;-67,15125000
4,58825590;-67,97382000
4,59191771;-72,72569000
4,59557953;-75,18523000
4,59924135;-67,22369000
4,60290316;-68,32682000
4,60656498;-76,48854000
4,61022680;-72,26069000
4,61388861;-66,55284000
4,61755043;-69,05023000
4,62121224;-81,60849000
4,62487406;-69,60577000
4,62853588;-66,99664000
4,63219769;-70,83345000
4,63585951;-82,23047000
4,63952133;-68,99508000
4,64318314;-66,50401000
4,64684496;-73,66385000
4,65050678;-74,68415000
4,65416859;-67,90317000
4,65783041;-67,14357000
4,66149222;-77,41410000
4,66515404;-72,37603000
4,66881586;-66,99825000
4,67247767;-67,99973000
4,67613949;-82,29501000
4,67980131;-69,40027000
4,68346312;-66,98745000
4,68712494;-70,58415000
4,69078676;-82,19685000
4,69444857;-69,34766000
4,69811039;-66,60065000
4,70177220;-72,81731000
4,70543402;-74,55016000
4,70909584;-68,16541000
4,71275765;-66,97334000
4,71641947;-78,60361000
4,72008129;-71,41399000
4,72374310;-68,26036000
4,72740492;-68,68755000
4,73106674;-80,00078000
4,73472855;-69,82413000
4,73839037;-66,46016000
4,74205218;-70,59062000
4,74571400;-81,07988000
4,74937582;-68,47092000
4,75303763;-67,19712000
4,75669945;-72,57779000
4,76036127;-75,73886000
4,76402308;-67,64667000
4,76768490;-67,43187000
4,77134672;-78,56749000
4,77500853;-71,23128000
4,77867035;-67,41824000
4,78233216;-69,32524000
4,78599398;-85,17097000
4,78965580;-70,98537000
4,79331761;-66,01296000
4,79697943;-71,50485000
4,80064125;-79,76963000
4,80430306;-68,34978000
4,80796488;-67,56303000
4,81162670;-74,59445000
4,81528851;-77,53052000
4,81895033;-67,50138000
4,82261214;-67,60359000
4,82627396;-80,73279000
4,82993578;-73,38937000
4,83359759;-67,53607000
4,83725941;-69,75655000
4,84092123;-81,79094000
4,84458304;-69,22412000
4,84824486;-67,19812000
4,85190668;-72,92166000
4,85556849;-85,31746000
4,85923031;-68,80325000
4,86289212;-67,94059000
4,86655394;-73,53552000
4,87021576;-77,46795000
4,87387757;-68,49511000
4,87753939;-67,93242000
4,88120121;-77,33180000
4,88486302;-74,43719000
4,88852484;-67,18524000
4,89218666;-69,45594000
4,89584847;-83,63029000
4,89951029;-70,84471000
4,90317210;-67,02974000
4,90683392;-70,20273000
4,91049574;-80,06532000
4,91415755;-69,42977000
4,91781937;-68,22888000
4,92148119;-72,33297000
4,92514300;-76,42720000
4,92880482;-67,85803000
4,93246663;-68,17992000
4,93612845;-77,74728000
4,93979027;-73,39328000
4,94345208;-67,46526000
4,94711390;-68,91195000
4,95077572;-80,37784000
4,95443753;-70,57764000
4,95809935;-67,54397000
4,96176117;-70,33071000
4,96542298;-84,25576000
4,96908480;-68,74489000
4,97274661;-67,68159000
4,97640843;-73,60425000
4,98007025;-78,25963000
4,98373206;-67,75537000
4,98739388;-68,17789000
4,99105570;-77,55936000
4,99471751;-73,13224000
4,99837933;-66,88908000
5,00204115;-70,55955000
5,00570296;-83,11621000
5,00936478;-70,67126000
5,01302659;-67,68831000
5,01668841;-70,78180000
5,02035023;-79,95358000
5,02401204;-69,82423000
5,02767386;-67,52415000
5,03133568;-72,89654000
5,03499749;-75,92338000
5,03865931;-67,90390000
5,04232113;-68,93744000
5,04598294;-76,72442000
5,04964476;-73,46748000
5,05330657;-68,01724000
5,05696839;-70,49435000
5,06063021;-86,48346000
5,06429202;-72,08129000
5,06795384;-67,96886000
5,07161566;-70,66870000
5,07527747;-80,07030000
5,07893929;-69,24039000
5,08260111;-67,70963000
5,08626292;-72,72920000
5,08992474;-77,78781000
5,09358655;-67,70975000
5,09724837;-69,09622000
5,10091019;-76,73103000
5,10457200;-74,37594000
5,10823382;-67,87570000
5,11189564;-68,74983000
5,11555745;-81,86026000
5,11921927;-69,74387000
5,12288109;-67,96758000
5,12654290;-71,99754000
5,13020472;-80,68730000
5,13386653;-69,41138000
5,13752835;-67,95243000
5,14119017;-73,54922000
5,14485198;-76,62447000
5,14851380;-68,76971000
5,15217562;-68,03308000
5,15583743;-78,43128000
5,15949925;-72,42328000
5,16316107;-68,70576000
5,16682288;-69,81583000
5,17048470;-81,20202000
5,17414651;-72,84072000
5,17780833;-67,52671000
5,18147015;-70,59271000
5,18513196;-85,63589000
5,18879378;-69,09620000
5,19245560;-67,90992000
5,19611741;-72,65530000
5,19977923;-76,84415000
5,20344105;-68,56100000
5,20710286;-69,22309000
5,21076468;-75,95216000
5,21442649;-74,95592000
5,21808831;-67,94894000
5,22175013;-69,67545000
5,22541194;-83,60654000
5,22907376;-72,12150000
5,23273558;-68,38564000
5,23639739;-70,54403000
5,24005921;-86,50700000
5,24372103;-69,87632000
5,24738284;-67,45956000
5,25104466;-74,49728000
5,25470647;-80,07203000
5,25836829;-68,58861000
5,26203011;-67,78653000
5,26569192;-77,23547000
5,26935374;-71,96246000
5,27301556;-68,38332000
5,27667737;-69,58991000
5,28033919;-80,89371000
5,28400101;-71,38058000
5,28766282;-68,41264000
5,29132464;-71,09640000
5,29498645;-83,23494000
5,29864827;-69,91057000
5,30231009;-68,42353000
5,30597190;-73,03433000
5,30963372;-78,75706000
5,31329554;-69,40633000
5,31695735;-68,02901000
5,32061917;-77,88416000
5,32428099;-74,68145000
5,32794280;-68,23657000
5,33160462;-69,21832000
5,33526643;-81,95888000
5,33892825;-72,28406000
5,34259007;-67,90132000
5,34625188;-70,44268000
5,34991370;-85,61356000
5,35357552;-70,43651000
5,35723733;-68,03699000
5,36089915;-73,29459000
5,36456097;-80,39669000
5,36822278;-68,19022000
5,37188460;-68,75944000
5,37554641;-77,05325000
5,37920823;-72,76523000
5,38287005;-68,09538000
5,38653186;-70,32561000
5,39019368;-80,98936000
5,39385550;-71,28450000
5,39751731;-68,89066000
5,40117913;-70,44831000
5,40484095;-81,37587000
5,40850276;-69,92514000
5,41216458;-67,42122000
5,41582639;-76,08752000
5,41948821;-78,61002000
5,42315003;-69,65089000
5,42681184;-68,17771000
5,43047366;-76,32111000
5,43413548;-75,86427000
5,43779729;-67,73746000
5,44145911;-69,58492000
5,44512093;-82,99849000
5,44878274;-72,31805000
5,45244456;-67,83084000
5,45610637;-71,53197000
5,45976819;-84,21081000
5,46343001;-69,75381000
5,46709182;-68,16328000
5,47075364;-72,84876000
5,47441546;-76,55260000
5,47807727;-68,47414000
5,48173909;-69,72883000
5,48540091;-77,13489000
5,48906272;-73,86221000
5,49272454;-68,52306000
5,49638635;-69,58001000
5,50004817;-80,89782000
5,50370999;-70,95045000
5,50737180;-68,19001000
5,51103362;-71,59093000
5,51469544;-82,80341000
5,51835725;-69,71472000
5,52201907;-68,91903000
5,52568089;-75,58966000
5,52934270;-77,14575000
5,53300452;-70,11234000
5,53666633;-68,63206000
5,54032815;-76,79908000
5,54398997;-75,07306000
5,54765178;-68,61741000
5,55131360;-69,86213000
5,55497542;-80,73370000
5,55863723;-71,91019000
5,56229905;-67,36542000
5,56596087;-73,60915000
5,56962268;-85,05967000
5,57328450;-71,76744000
5,57694631;-69,13200000
5,58060813;-71,91637000
5,58426995;-80,41108000
5,58793176;-69,24341000
5,59159358;-69,02496000
5,59525540;-75,40298000
5,59891721;-75,78851000
5,60257903;-68,24528000
5,60624084;-70,19780000
5,60990266;-82,47247000
5,61356448;-73,14897000
5,61722629;-68,09870000
5,62088811;-69,91917000
5,62454993;-86,12558000
5,62821174;-69,82541000
5,63187356;-68,41397000
5,63553538;-74,22464000
5,63919719;-78,71103000
5,64285901;-69,46841000
5,64652082;-69,11287000
5,65018264;-76,56888000
5,65384446;-74,16932000
5,65750627;-68,32910000
5,66116809;-69,76359000
5,66482991;-81,78041000
5,66849172;-71,15038000
5,67215354;-68,54327000
5,67581536;-71,84813000
5,67947717;-80,22823000
5,68313899;-70,26274000
5,68680080;-69,54554000
5,69046262;-74,30161000
5,69412444;-85,27032000
5,69778625;-69,03448000
5,70144807;-68,99587000
5,70510989;-77,56490000
5,70877170;-74,55635000
5,71243352;-69,81864000
5,71609534;-69,79666000
5,71975715;-80,19862000
5,72341897;-73,06071000
5,72708078;-68,14218000
5,73074260;-71,62949000
5,73440442;-82,49423000
5,73806623;-70,39447000
5,74172805;-68,35291000
5,74538987;-73,46845000
5,74905168;-79,03818000
5,75271350;-69,48375000
5,75637532;-68,51594000
5,76003713;-80,33657000
5,76369895;-74,90388000
5,76736076;-69,63941000
5,77102258;-69,67468000
5,77468440;-80,54917000
5,77834621;-71,46669000
5,78200803;-68,64889000
5,78566985;-72,42373000
5,78933166;-81,25871000
5,79299348;-71,72575000
5,79665530;-68,43159000
5,80031711;-72,56669000
5,80397893;-77,45284000
5,80764074;-69,89137000
5,81130256;-70,07816000
5,81496438;-75,56866000
5,81862619;-74,74812000
5,82228801;-69,50650000
5,82594983;-70,40720000
5,82961164;-82,70000000
5,83327346;-73,17452000
5,83693528;-68,60528000
5,84059709;-71,70499000
5,84425891;-80,60958000
5,84792072;-71,85529000
5,85158254;-68,24332000
5,85524436;-74,83244000
5,85890617;-80,51681000
5,86256799;-70,54946000
5,86622981;-69,14912000
5,86989162;-75,71007000
5,87355344;-75,43901000
5,87721526;-69,79115000
5,88087707;-69,50323000
5,88453889;-82,45208000
5,88820070;-73,49288000
5,89186252;-68,19249000
5,89552434;-70,79709000
5,89918615;-80,49036000
5,90284797;-71,33174000
5,90650979;-68,69718000
5,91017160;-73,17100000
5,91383342;-78,44925000
5,91749524;-69,65786000
5,92115705;-69,55986000
5,92481887;-77,98499000
5,92848068;-77,89398000
5,93214250;-68,42673000
5,93580432;-70,89835000
5,93946613;-82,05310000
5,94312795;-72,46381000
5,94678977;-68,54868000
5,95045158;-72,38881000
5,95411340;-88,97803000
5,95777522;-70,23676000
5,96143703;-69,41037000
5,96509885;-73,90878000
5,96876066;-79,36138000
5,97242248;-70,05125000
5,97608430;-69,15940000
5,97974611;-78,60239000
5,98340793;-77,50207000
5,98706975;-70,09770000
5,99073156;-69,85429000
5,99439338;-80,57649000
5,99805520;-72,48971000
6,00171701;-69,41574000
6,00537883;-70,96786000
6,00904064;-86,68297000
6,01270246;-71,96385000
6,01636428;-68,57332000
6,02002609;-73,83491000
6,02368791;-83,88643000
6,02734973;-70,29887000
6,03101154;-68,59775000
6,03467336;-78,85838000
6,03833518;-77,35389000
6,04199699;-69,04175000
6,04565881;-69,40795000
6,04932062;-85,05062000
6,05298244;-74,86378000
6,05664426;-68,64033000
6,06030607;-71,68613000
6,06396789;-83,06472000
6,06762971;-70,54881000
6,07129152;-68,07328000
6,07495334;-73,18909000
6,07861516;-76,46165000
6,08227697;-70,09512000
6,08593879;-70,62223000
6,08960060;-74,23119000
6,09326242;-74,98729000
6,09692424;-69,47242000
6,10058605;-70,35480000
6,10424787;-82,92783000
6,10790969;-74,92499000
6,11157150;-68,28653000
6,11523332;-70,83013000
6,11889514;-84,66172000
6,12255695;-71,27756000
6,12621877;-69,32006000
6,12988058;-74,37235000
6,13354240;-81,13846000
6,13720422;-69,93761000
6,14086603;-70,94540000
6,14452785;-76,71390000
6,14818967;-80,34882000
6,15185148;-69,43245000
6,15551330;-70,54248000
6,15917512;-80,38036000
6,16283693;-73,32484000
6,16649875;-69,05481000
6,17016056;-71,24418000
6,17382238;-82,80461000
6,17748420;-71,44071000
6,18114601;-69,14614000
6,18480783;-72,19698000
6,18846965;-79,47904000
6,19213146;-69,33707000
6,19579328;-70,11740000
6,19945510;-74,64837000
6,20311691;-76,19186000
6,20677873;-68,79993000
6,21044054;-69,61434000
6,21410236;-83,81699000
6,21776418;-74,31805000
6,22142599;-67,96035000
6,22508781;-71,87386000
6,22874963;-91,36729000
6,23241144;-71,30862000
6,23607326;-69,49972000
6,23973507;-73,52289000
6,24339689;-81,94431000
6,24705871;-71,02811000
6,25072052;-69,40211000
6,25438234;-77,01640000
6,25804416;-80,15243000
6,26170597;-68,79762000
6,26536779;-70,35797000
6,26902961;-78,95298000
6,27269142;-72,87202000
6,27635324;-68,45827000
6,28001505;-72,48920000
6,28367687;-84,78359000
6,28733869;-71,24281000
6,29100050;-68,81368000
6,29466232;-73,06817000
6,29832414;-79,87817000
6,30198595;-70,53683000
6,30564777;-69,57189000
6,30930959;-75,11720000
6,31297140;-76,08089000
6,31663322;-68,57863000
6,32029503;-70,47898000
6,32395685;-82,38539000
6,32761867;-73,02772000
6,33128048;-70,26337000
6,33494230;-70,51315000
6,33860412;-84,38785000
6,34226593;-70,76325000
6,34592775;-68,96677000
6,34958957;-73,95806000
6,35325138;-81,99490000
6,35691320;-70,37096000
6,36057501;-69,90432000
6,36423683;-74,34878000
6,36789865;-76,21080000
6,37156046;-68,15680000
6,37522228;-70,94811000
6,37888410;-82,69388000
6,38254591;-73,19905000
6,38620773;-69,54118000
6,38986955;-71,34465000
6,39353136;-83,60315000
6,39719318;-71,52530000
6,40085499;-70,06926000
6,40451681;-73,04108000
6,40817863;-85,08644000
6,41184044;-69,59329000
6,41550226;-69,26339000
6,41916408;-76,10310000
6,42282589;-76,05107000
6,42648771;-69,39679000
6,43014953;-69,90736000
6,43381134;-85,80524000
6,43747316;-72,96265000
6,44113497;-69,40100000
6,44479679;-71,83018000
6,44845861;-92,69813000
6,45212042;-72,29206000
6,45578224;-69,50598000
6,45944406;-73,87206000
6,46310587;-81,06884000
6,46676769;-70,68987000
6,47042951;-69,60406000
6,47409132;-77,17937000
6,47775314;-76,80859000
6,48141495;-70,07588000
6,48507677;-70,70668000
6,48873859;-80,51927000
6,49240040;-74,49368000
6,49606222;-70,16501000
6,49972404;-70,74631000
6,50338585;-86,08606000
6,50704767;-71,84984000
6,51070949;-68,80626000
6,51437130;-73,39105000
6,51803312;-80,16747000
6,52169493;-72,23415000
6,52535675;-68,74015000
6,52901857;-74,26611000
6,53268038;-75,26704000
6,53634220;-70,28619000
6,54000402;-69,47379000
6,54366583;-83,35209000
6,54732765;-73,78809000
6,55098947;-68,29050000
6,55465128;-71,64229000
6,55831310;-83,55487000
6,56197491;-71,84514000
6,56563673;-70,86855000
6,56929855;-72,43002000
6,57296036;-78,83225000
6,57662218;-70,64243000
6,58028400;-70,20737000
6,58394581;-75,99277000
6,58760763;-76,23015000
6,59126945;-70,42064000
6,59493126;-70,52419000
6,59859308;-79,09219000
6,60225489;-72,94402000
6,60591671;-70,04043000
6,60957853;-72,98051000
6,61324034;-80,67467000
6,61690216;-70,41566000
6,62056398;-70,66439000
6,62422579;-72,70889000
6,62788761;-81,34093000
6,63154943;-71,61145000
6,63521124;-69,27556000
6,63887306;-73,97724000
6,64253487;-75,53926000
6,64619669;-70,65632000
6,64985851;-69,41352000
6,65352032;-86,15192000
6,65718214;-77,04365000
6,66084396;-68,91660000
6,66450577;-70,48281000
6,66816759;-85,07941000
6,67182941;-71,98640000
6,67549122;-68,84425000
6,67915304;-73,55071000
6,68281485;-82,86334000
6,68647667;-70,32576000
6,69013849;-70,39196000
6,69380030;-75,19492000
6,69746212;-77,53607000
6,70112394;-70,58301000
6,70478575;-69,17053000
6,70844757;-76,63589000
6,71210939;-73,48825000
6,71577120;-69,25037000
6,71943302;-71,76942000
6,72309483;-81,87219000
6,72675665;-71,42538000
6,73041847;-69,02605000
6,73408028;-72,43462000
6,73774210;-78,56088000
6,74140392;-71,14738000
6,74506573;-69,77817000
6,74872755;-75,58173000
6,75238937;-77,21923000
6,75605118;-69,35096000
6,75971300;-70,63699000
6,76337481;-80,93484000
6,76703663;-75,23775000
6,77069845;-69,03764000
6,77436026;-72,35404000
6,77802208;-84,31078000
6,78168390;-72,14779000
6,78534571;-69,99566000
6,78900753;-73,51228000
6,79266935;-82,17473000
6,79633116;-71,29979000
6,79999298;-69,69112000
6,80365479;-76,32702000
6,80731661;-81,93044000
6,81097843;-69,62314000
6,81464024;-70,51875000
6,81830206;-76,27099000
6,82196388;-73,99446000
6,82562569;-69,41780000
6,82928751;-71,04176000
6,83294933;-84,29661000
6,83661114;-74,15519000
6,84027296;-68,40567000
6,84393477;-72,43811000
6,84759659;-82,94933000
6,85125841;-71,03137000
6,85492022;-68,84606000
6,85858204;-75,76522000
6,86224386;-76,77491000
6,86590567;-69,31891000
6,86956749;-70,12279000
6,87322931;-80,69765000
6,87689112;-73,49134000
6,88055294;-70,24915000
6,88421475;-72,99284000
6,88787657;-80,64264000
6,89153839;-73,20749000
6,89520020;-68,29821000
6,89886202;-75,30409000
6,90252384;-86,50855000
6,90618565;-70,17062000
6,90984747;-70,06935000
6,91350928;-74,91286000
6,91717110;-77,75159000
6,92083292;-71,16459000
6,92449473;-69,43988000
6,92815655;-77,84394000
6,93181837;-74,00078000
6,93548018;-68,75603000
6,93914200;-71,89104000
6,94280382;-89,46245000
6,94646563;-72,84194000
6,95012745;-69,25729000
6,95378926;-72,96996000
6,95745108;-80,73983000
6,96111290;-70,18130000
6,96477471;-69,39544000
6,96843653;-76,18768000
6,97209835;-77,38587000
6,97576016;-70,14935000
6,97942198;-70,05206000
6,98308380;-79,11469000
6,98674561;-73,91082000
6,99040743;-69,84542000
6,99406924;-71,83373000
6,99773106;-82,80868000
7,00139288;-72,43304000
7,00505469;-69,01241000
7,00871651;-73,79956000
7,01237833;-88,17300000
7,01604014;-70,96841000
7,01970196;-69,93774000
7,02336378;-74,50087000
7,02702559;-79,14915000
7,03068741;-70,11613000
7,03434922;-69,11126000
7,03801104;-78,78206000
7,04167286;-74,05394000
7,04533467;-68,42881000
7,04899649;-72,28150000
7,05265831;-85,52902000
7,05632012;-72,57959000
7,05998194;-69,47501000
7,06364376;-72,68571000
7,06730557;-82,13193000
7,07096739;-71,25573000
7,07462920;-69,72291000
7,07829102;-74,22731000
7,08195284;-78,44144000
7,08561465;-69,31077000
7,08927647;-70,41877000
7,09293829;-79,67098000
7,09660010;-74,37296000
7,10026192;-70,04645000
7,10392374;-71,53603000
7,10758555;-81,99777000
7,11124737;-72,15565000
7,11490918;-69,63409000
7,11857100;-72,96914000
7,12223282;-83,14324000
7,12589463;-69,81618000
7,12955645;-70,00603000
7,13321827;-76,03503000
7,13688008;-79,03550000
7,14054190;-71,09151000
7,14420372;-69,49404000
7,14786553;-77,75169000
7,15152735;-73,79985000
7,15518916;-69,67130000
7,15885098;-71,40591000
7,16251280;-81,08134000
7,16617461;-72,33142000
7,16983643;-68,72346000
7,17349825;-73,35197000
7,17716006;-84,02726000
7,18082188;-70,84778000
7,18448370;-69,36988000
7,18814551;-75,43742000
7,19180733;-77,27082000
7,19546914;-70,64798000
7,19913096;-69,74982000
7,20279278;-78,96706000
7,20645459;-75,09183000
7,21011641;-70,00490000
7,21377823;-69,46675000
7,21744004;-83,88365000
7,22110186;-72,72214000
7,22476368;-69,00919000
7,22842549;-73,32531000
7,23208731;-81,17651000
7,23574912;-72,49158000
7,23941094;-68,80286000
7,24307276;-74,92579000
7,24673457;-77,54920000
7,25039639;-69,48271000
7,25405821;-70,60937000
7,25772002;-79,37232000
7,26138184;-73,90842000
7,26504366;-70,10773000
7,26870547;-71,39913000
7,27236729;-81,31876000
7,27602910;-72,94478000
7,27969092;-69,29948000
7,28335274;-71,75929000
7,28701455;-84,40619000
7,29067637;-70,82310000
7,29433819;-69,32507000
7,29800000;-76,64725000
7,30166182;-79,59886000
7,30532364;-71,34866000
7,30898545;-69,18693000
7,31264727;-78,87958000
7,31630908;-74,49507000
7,31997090;-69,24579000
7,32363272;-71,57311000
7,32729453;-81,17419000
7,33095635;-72,46367000
7,33461817;-69,15736000
7,33827998;-72,95473000
7,34194180;-99,39706000
7,34560362;-70,48023000
7,34926543;-69,48425000
7,35292725;-73,68173000
7,35658906;-76,57076000
7,36025088;-69,32458000
7,36391270;-70,33720000
7,36757451;-81,29457000
7,37123633;-76,48699000
7,37489815;-68,51004000
7,37855996;-71,80873000
7,38222178;-84,88445000
7,38588360;-73,61734000
7,38954541;-69,14727000
7,39320723;-72,45827000
7,39686904;-82,88100000
7,40053086;-70,92235000
7,40419268;-70,32647000
7,40785449;-74,52596000
7,41151631;-78,81023000
7,41517813;-70,63266000
7,41883994;-69,15875000
7,42250176;-79,94081000
7,42616358;-74,61305000
7,42982539;-69,30225000
7,43348721;-71,51650000
7,43714902;-79,03443000
7,44081084;-71,75628000
7,44447266;-68,71360000
7,44813447;-73,73106000
7,45179629;-84,87949000
7,45545811;-70,38374000
7,45911992;-70,89648000
7,46278174;-73,98241000
7,46644356;-77,29922000
7,47010537;-70,66452000
7,47376719;-71,13049000
7,47742900;-76,86012000
7,48109082;-74,67358000
7,48475264;-69,96367000
7,48841445;-71,03008000
7,49207627;-81,66531000
7,49573809;-72,86870000
