Frequency;Channel A
(kHz);(dBV)

0,00000000;-61,29391000
0,00366182;-65,45194000
0,00732363;-79,38653000
0,01098545;-89,95528000
0,01464727;-82,81114000
0,01830908;-88,04665000
0,02197090;-93,38519000
0,02563271;-94,36433000
0,02929453;-104,17700000
0,03295635;-91,37664000
0,03661816;-87,13719000
0,04027998;-92,27654000
0,04394180;-88,94440000
0,04760361;-81,45068000
0,05126543;-80,86045000
0,05492725;-83,24762000
0,05858906;-87,08159000
0,06225088;-88,65292000
0,06591269;-84,25056000
0,06957451;-82,11746000
0,07323633;-83,59116000
0,07689814;-91,54656000
0,08055996;-88,14207000
0,08422178;-85,97658000
0,08788359;-86,84093000
0,09154541;-99,74285000
0,09520723;-86,33698000
0,09886904;-83,22704000
0,10253086;-87,89077000
0,10619267;-89,89758000
0,10985449;-91,25874000
0,11351631;-90,65813000
0,11717812;-89,94923000
0,12083994;-92,93739000
0,12450176;-93,00973000
0,12816357;-89,90860000
0,13182539;-96,56299000
0,13548721;-96,28207000
0,13914902;-91,64046000
0,14281084;-86,52062000
0,14647265;-86,49396000
0,15013447;-94,30095000
0,15379629;-97,72276000
0,15745810;-91,35223000
0,16111992;-113,28810000
0,16478174;-87,32951000
0,16844355;-89,09779000
0,17210537;-93,22048000
0,17576719;-91,28294000
0,17942900;-88,83191000
0,18309082;-84,16755000
0,18675263;-83,87874000
0,19041445;-89,39919000
0,19407627;-90,50404000
0,19773808;-87,63423000
0,20139990;-93,64543000
0,20506172;-98,08025000
0,20872353;-93,05676000
0,21238535;-90,54222000
0,21604717;-86,70768000
0,21970898;-88,55564000
0,22337080;-92,35237000
0,22703261;-88,29668000
0,23069443;-89,54939000
0,23435625;-93,96587000
0,23801806;-101,02680000
0,24167988;-92,12219000
0,24534170;-91,76170000
0,24900351;-106,95670000
0,25266533;-103,73690000
0,25632715;-93,20734000
0,25998896;-101,59870000
0,26365078;-89,19372000
0,26731259;-89,00275000
0,27097441;-88,51738000
0,27463623;-86,14284000
0,27829804;-91,33983000
0,28195986;-88,51894000
0,28562168;-88,44324000
0,28928349;-88,42151000
0,29294531;-96,82511000
0,29660713;-99,63426000
0,30026894;-99,76782000
0,30393076;-106,49820000
0,30759257;-94,11526000
0,31125439;-87,57732000
0,31491621;-90,58406000
0,31857802;-90,13229000
0,32223984;-93,22349000
0,32590166;-91,77650000
0,32956347;-90,96661000
0,33322529;-109,15200000
0,33688710;-88,91067000
0,34054892;-84,03532000
0,34421074;-82,29320000
0,34787255;-86,38991000
0,35153437;-97,76536000
0,35519619;-91,26627000
0,35885800;-82,82177000
0,36251982;-81,43716000
0,36618164;-82,45671000
0,36984345;-85,37255000
0,37350527;-93,62433000
0,37716708;-88,63293000
0,38082890;-90,31786000
0,38449072;-94,78175000
0,38815253;-89,15326000
0,39181435;-90,50159000
0,39547617;-89,60916000
0,39913798;-91,32455000
0,40279980;-90,32098000
0,40646162;-90,65797000
0,41012343;-101,33740000
0,41378525;-84,95712000
0,41744706;-82,84679000
0,42110888;-84,97974000
0,42477070;-87,74789000
0,42843251;-88,47511000
0,43209433;-85,71542000
0,43575615;-85,63973000
0,43941796;-97,10480000
0,44307978;-89,35435000
0,44674160;-93,06893000
0,45040341;-103,30910000
0,45406523;-97,56870000
0,45772704;-87,02529000
0,46138886;-87,82871000
0,46505068;-115,61130000
0,46871249;-89,65498000
0,47237431;-89,06197000
0,47603613;-88,62503000
0,47969794;-87,07903000
0,48335976;-88,07059000
0,48702158;-90,34850000
0,49068339;-91,97659000
0,49434521;-91,86340000
0,49800702;-95,45073000
0,50166884;-87,45262000
0,50533066;-87,52555000
0,50899247;-86,03810000
0,51265429;-90,61732000
0,51631611;-91,18744000
0,51997792;-91,04328000
0,52363974;-90,56058000
0,52730156;-87,02538000
0,53096337;-85,49232000
0,53462519;-86,06642000
0,53828700;-90,33858000
0,54194882;-110,95510000
0,54561064;-89,41918000
0,54927245;-94,06326000
0,55293427;-95,16495000
0,55659609;-93,41679000
0,56025790;-89,87355000
0,56391972;-93,73433000
0,56758154;-88,89462000
0,57124335;-88,56339000
0,57490517;-93,52230000
0,57856698;-91,61029000
0,58222880;-91,74097000
0,58589062;-95,33662000
0,58955243;-94,51482000
0,59321425;-91,36771000
0,59687607;-87,76181000
0,60053788;-87,60855000
0,60419970;-90,80090000
0,60786152;-96,33575000
0,61152333;-99,66455000
0,61518515;-97,73518000
0,61884696;-94,34268000
0,62250878;-89,91141000
0,62617060;-96,77533000
0,62983241;-93,66476000
0,63349423;-90,61363000
0,63715605;-90,41755000
0,64081786;-103,34990000
0,64447968;-97,78362000
0,64814150;-91,43736000
0,65180331;-87,89516000
0,65546513;-89,49729000
0,65912694;-90,04716000
0,66278876;-88,23055000
0,66645058;-88,26181000
0,67011239;-85,13918000
0,67377421;-86,36964000
0,67743603;-88,47943000
0,68109784;-96,89648000
0,68475966;-89,76205000
0,68842148;-86,62254000
0,69208329;-87,11610000
0,69574511;-100,36880000
0,69940692;-92,08706000
0,70306874;-90,62520000
0,70673056;-88,80668000
0,71039237;-87,94975000
0,71405419;-86,37709000
0,71771601;-87,15924000
0,72137782;-95,48821000
0,72503964;-92,61465000
0,72870146;-89,54686000
0,73236327;-82,47830000
0,73602509;-81,65089000
0,73968690;-87,22939000
0,74334872;-87,76700000
0,74701054;-85,43015000
0,75067235;-86,64270000
0,75433417;-94,88831000
0,75799599;-84,69421000
0,76165780;-88,88718000
0,76531962;-99,25246000
0,76898144;-102,86200000
0,77264325;-89,40434000
0,77630507;-87,20349000
0,77996688;-92,50347000
0,78362870;-90,80064000
0,78729052;-85,54042000
0,79095233;-83,08482000
0,79461415;-84,27496000
0,79827597;-91,03564000
0,80193778;-85,87274000
0,80559960;-86,72939000
0,80926142;-90,30780000
0,81292323;-89,30399000
0,81658505;-91,00867000
0,82024686;-86,01012000
0,82390868;-86,51326000
0,82757050;-85,07340000
0,83123231;-84,63673000
0,83489413;-87,43227000
0,83855595;-88,99226000
0,84221776;-94,66026000
0,84587958;-93,99674000
0,84954140;-110,98040000
0,85320321;-91,53017000
0,85686503;-92,19674000
0,86052684;-84,91493000
0,86418866;-90,07191000
0,86785048;-91,48116000
0,87151229;-88,07971000
0,87517411;-91,85823000
0,87883593;-101,21460000
0,88249774;-91,51874000
0,88615956;-87,57877000
0,88982138;-89,94693000
0,89348319;-96,16268000
0,89714501;-92,17149000
0,90080682;-85,57887000
0,90446864;-86,37552000
0,90813046;-90,14626000
0,91179227;-93,54359000
0,91545409;-97,24152000
0,91911591;-93,21811000
0,92277772;-90,56683000
0,92643954;-89,96515000
0,93010136;-90,44167000
0,93376317;-94,64928000
0,93742499;-94,52934000
0,94108680;-87,87169000
0,94474862;-87,25389000
0,94841044;-101,33350000
0,95207225;-99,66805000
0,95573407;-94,35149000
0,95939589;-86,39809000
0,96305770;-90,30203000
0,96671952;-104,94860000
0,97038134;-92,24774000
0,97404315;-84,94739000
0,97770497;-83,68346000
0,98136678;-84,56982000
0,98502860;-86,41265000
0,98869042;-96,79902000
0,99235223;-88,86897000
0,99601405;-87,42616000
0,99967587;-89,52290000
1,00333768;-88,53568000
1,00699950;-87,79100000
1,01066131;-90,70213000
1,01432313;-102,17690000
1,01798495;-89,63622000
1,02164676;-84,93520000
1,02530858;-92,97206000
1,02897040;-86,85227000
1,03263221;-89,34796000
1,03629403;-98,98949000
1,03995585;-90,22516000
1,04361766;-93,61713000
1,04727948;-90,49965000
1,05094129;-88,22612000
1,05460311;-89,00389000
1,05826493;-91,12799000
1,06192674;-92,83891000
1,06558856;-100,71570000
1,06925038;-88,52606000
1,07291219;-85,76875000
1,07657401;-84,81017000
1,08023583;-88,97915000
1,08389764;-87,17528000
1,08755946;-83,86545000
1,09122127;-87,58714000
1,09488309;-94,48785000
1,09854491;-96,97987000
1,10220672;-95,07728000
1,10586854;-89,85877000
1,10953036;-93,30644000
1,11319217;-94,43669000
1,11685399;-93,14246000
1,12051581;-91,42700000
1,12417762;-90,89104000
1,12783944;-86,36624000
1,13150125;-81,25674000
1,13516307;-81,19640000
1,13882489;-87,94504000
1,14248670;-100,38310000
1,14614852;-96,37765000
1,14981034;-86,91455000
1,15347215;-88,06099000
1,15713397;-94,25142000
1,16079579;-85,03479000
1,16445760;-82,42722000
1,16811942;-84,90612000
1,17178123;-87,33453000
1,17544305;-89,92756000
1,17910487;-94,78091000
1,18276668;-91,01314000
1,18642850;-90,21960000
1,19009032;-93,82413000
1,19375213;-102,36890000
1,19741395;-108,00140000
1,20107577;-101,95450000
1,20473758;-89,35408000
1,20839940;-88,36968000
1,21206121;-93,34621000
1,21572303;-94,78349000
1,21938485;-97,21050000
1,22304666;-104,79280000
1,22670848;-92,78859000
1,23037030;-90,16232000
1,23403211;-86,58347000
1,23769393;-87,00668000
1,24135575;-93,81001000
1,24501756;-88,78973000
1,24867938;-98,81699000
1,25234119;-94,87848000
1,25600301;-93,18360000
1,25966483;-93,56942000
1,26332664;-103,30240000
1,26698846;-110,74500000
1,27065028;-90,51873000
1,27431209;-87,46417000
1,27797391;-89,56199000
1,28163573;-96,78748000
1,28529754;-99,18792000
1,28895936;-100,80680000
1,29262117;-96,40491000
1,29628299;-90,37795000
1,29994481;-94,91164000
1,30360662;-93,03092000
1,30726844;-83,51810000
1,31093026;-82,62321000
1,31459207;-87,69658000
1,31825389;-89,79202000
1,32191571;-87,41989000
1,32557752;-83,64127000
1,32923934;-83,38821000
1,33290115;-84,10003000
1,33656297;-88,22855000
1,34022479;-85,16586000
1,34388660;-84,48933000
1,34754842;-87,54607000
1,35121024;-88,83424000
1,35487205;-87,96414000
1,35853387;-89,23623000
1,36219569;-89,65058000
1,36585750;-97,32121000
1,36951932;-102,82570000
1,37318113;-92,43333000
1,37684295;-85,45049000
1,38050477;-85,22210000
1,38416658;-87,31599000
1,38782840;-91,75919000
1,39149022;-91,18893000
1,39515203;-87,12468000
1,39881385;-92,78431000
1,40247567;-85,30736000
1,40613748;-83,80874000
1,40979930;-87,41599000
1,41346111;-97,82693000
1,41712293;-88,55964000
1,42078475;-84,32930000
1,42444656;-86,02292000
1,42810838;-90,80422000
1,43177020;-104,00590000
1,43543201;-91,98273000
1,43909383;-88,11852000
1,44275565;-83,78096000
1,44641746;-84,05251000
1,45007928;-94,51644000
1,45374109;-97,26773000
1,45740291;-99,04004000
1,46106473;-97,19594000
1,46472654;-98,84637000
1,46838836;-89,99314000
1,47205018;-88,50811000
1,47571199;-86,18002000
1,47937381;-85,86310000
1,48303563;-87,58951000
1,48669744;-91,93835000
1,49035926;-88,06580000
1,49402107;-92,48781000
1,49768289;-88,52261000
1,50134471;-94,93981000
1,50500652;-99,64160000
1,50866834;-91,89965000
1,51233016;-87,56039000
1,51599197;-87,07028000
1,51965379;-97,87619000
1,52331561;-93,58493000
1,52697742;-90,05725000
1,53063924;-91,68458000
1,53430105;-85,47452000
1,53796287;-87,07928000
1,54162469;-87,46750000
1,54528650;-82,69661000
1,54894832;-86,29535000
1,55261014;-87,66994000
1,55627195;-85,46658000
1,55993377;-90,23672000
1,56359559;-83,21250000
1,56725740;-82,75974000
1,57091922;-89,81297000
1,57458103;-86,18732000
1,57824285;-86,78677000
1,58190467;-87,34662000
1,58556648;-87,52000000
1,58922830;-90,18295000
1,59289012;-92,75424000
1,59655193;-92,18761000
1,60021375;-95,40962000
1,60387557;-97,03917000
1,60753738;-94,77302000
1,61119920;-90,72735000
1,61486101;-89,00326000
1,61852283;-85,28574000
1,62218465;-85,70772000
1,62584646;-88,28522000
1,62950828;-95,64598000
1,63317010;-85,73493000
1,63683191;-83,44089000
1,64049373;-94,22637000
1,64415554;-84,33272000
1,64781736;-85,97432000
1,65147918;-93,20425000
1,65514099;-93,03664000
1,65880281;-90,58567000
1,66246463;-91,10686000
1,66612644;-93,75163000
1,66978826;-86,03722000
1,67345008;-101,14970000
1,67711189;-87,34603000
1,68077371;-93,94789000
1,68443552;-90,99036000
1,68809734;-99,91154000
1,69175916;-104,25490000
1,69542097;-82,95707000
1,69908279;-86,05865000
1,70274461;-86,06595000
1,70640642;-84,50354000
1,71006824;-89,21964000
1,71373006;-81,00249000
1,71739187;-82,51789000
1,72105369;-88,24180000
1,72471550;-81,64160000
1,72837732;-83,44814000
1,73203914;-79,82137000
1,73570095;-75,98265000
1,73936277;-90,51998000
1,74302459;-93,55782000
1,74668640;-85,43517000
1,75034822;-89,11336000
1,75401004;-81,85187000
1,75767185;-85,05284000
1,76133367;-94,32537000
1,76499548;-82,57129000
1,76865730;-100,74750000
1,77231912;-104,83930000
1,77598093;-83,14574000
1,77964275;-89,75823000
1,78330457;-83,31607000
1,78696638;-80,28393000
1,79062820;-86,80366000
1,79429002;-79,29021000
1,79795183;-85,36900000
1,80161365;-88,56180000
1,80527546;-75,32249000
1,80893728;-88,23966000
1,81259910;-81,27312000
1,81626091;-75,67314000
1,81992273;-121,55850000
1,82358455;-77,53030000
1,82724636;-78,93699000
1,83090818;-89,52364000
1,83457000;-75,53249000
1,83823181;-85,05196000
1,84189363;-89,08546000
1,84555544;-73,26531000
1,84921726;-93,44136000
1,85287908;-77,79118000
1,85654089;-73,41854000
1,86020271;-93,53397000
1,86386453;-72,11876000
1,86752634;-75,17422000
1,87118816;-87,70479000
1,87484998;-68,30898000
1,87851179;-77,38311000
1,88217361;-74,49426000
1,88583542;-66,82360000
1,88949724;-93,74628000
1,89315906;-70,40326000
1,89682087;-68,04709000
1,90048269;-90,14258000
1,90414451;-65,08880000
1,90780632;-70,56670000
1,91146814;-78,27720000
1,91512996;-62,02248000
1,91879177;-77,41624000
1,92245359;-67,96413000
1,92611540;-60,70651000
1,92977722;-83,84547000
1,93343904;-60,55105000
1,93710085;-60,78976000
1,94076267;-86,50162000
1,94442449;-55,08392000
1,94808630;-62,37530000
1,95174812;-63,85499000
1,95540994;-50,90409000
1,95907175;-69,44833000
1,96273357;-52,86937000
1,96639538;-47,52464000
1,97005720;-90,78980000
1,97371902;-43,24194000
1,97738083;-44,22901000
1,98104265;-56,32573000
1,98470447;-32,35064000
1,98836628;-39,54512000
1,99202810;-30,18708000
1,99568992;-10,69864000
1,99935173;-5,08726400
2,00301355;-7,61826800
2,00667536;-20,32090000
2,01033718;-64,70943000
2,01399900;-31,56011000
2,01766081;-41,72475000
2,02132263;-53,48449000
2,02498445;-40,74063000
2,02864626;-58,84327000
2,03230808;-52,28951000
2,03596990;-48,02139000
2,03963171;-86,82690000
2,04329353;-52,80228000
2,04695534;-55,41631000
2,05061716;-77,74316000
2,05427898;-54,34997000
2,05794079;-63,57884000
2,06160261;-67,08611000
2,06526443;-57,40596000
2,06892624;-79,65480000
2,07258806;-64,65422000
2,07624988;-61,81580000
2,07991169;-85,51076000
2,08357351;-63,39615000
2,08723532;-67,63651000
2,09089714;-80,15365000
2,09455896;-63,50658000
2,09822077;-75,44483000
2,10188259;-74,03735000
2,10554441;-66,07047000
2,10920622;-91,07738000
2,11286804;-70,43998000
2,11652986;-70,23868000
2,12019167;-84,85674000
2,12385349;-69,50848000
2,12751530;-73,08275000
2,13117712;-77,25300000
2,13483894;-69,22379000
2,13850075;-85,27634000
2,14216257;-76,75456000
2,14582439;-71,50971000
2,14948620;-83,54478000
2,15314802;-72,76832000
2,15680984;-74,55895000
2,16047165;-89,13931000
2,16413347;-73,79910000
2,16779528;-81,68497000
2,17145710;-81,24954000
2,17511892;-73,58522000
2,17878073;-85,70495000
2,18244255;-78,79704000
2,18610437;-76,09979000
2,18976618;-89,05449000
2,19342800;-76,17683000
2,19708982;-77,81113000
2,20075163;-83,18239000
2,20441345;-74,72684000
2,20807526;-80,56056000
2,21173708;-78,92877000
2,21539890;-76,08760000
2,21906071;-97,19801000
2,22272253;-85,32130000
2,22638435;-83,74779000
2,23004616;-89,42555000
2,23370798;-83,10376000
2,23736980;-86,91989000
2,24103161;-89,10699000
2,24469343;-79,57274000
2,24835524;-109,14950000
2,25201706;-95,12941000
2,25567888;-84,88921000
2,25934069;-93,69864000
2,26300251;-88,89796000
2,26666433;-89,41420000
2,27032614;-97,83411000
2,27398796;-81,54469000
2,27764978;-90,47383000
2,28131159;-90,46510000
2,28497341;-80,44941000
2,28863522;-83,74676000
2,29229704;-81,03880000
2,29595886;-83,08384000
2,29962067;-91,69324000
2,30328249;-87,18536000
2,30694431;-92,23709000
2,31060612;-94,58802000
2,31426794;-87,09778000
2,31792975;-93,86929000
2,32159157;-94,83627000
2,32525339;-85,30844000
2,32891520;-87,90823000
2,33257702;-83,19560000
2,33623884;-82,46419000
2,33990065;-87,07410000
2,34356247;-83,03677000
2,34722429;-86,94313000
2,35088610;-90,79311000
2,35454792;-83,02682000
2,35820973;-91,20427000
2,36187155;-97,75990000
2,36553337;-101,85590000
2,36919518;-94,39746000
2,37285700;-93,61863000
2,37651882;-92,63582000
2,38018063;-85,79518000
2,38384245;-88,15918000
2,38750427;-93,80743000
2,39116608;-93,43835000
2,39482790;-96,26205000
2,39848971;-94,32242000
2,40215153;-98,88863000
2,40581335;-92,37194000
2,40947516;-86,75496000
2,41313698;-98,10963000
2,41679880;-90,36938000
2,42046061;-88,01060000
2,42412243;-94,09072000
2,42778425;-89,37572000
2,43144606;-93,75259000
2,43510788;-86,88724000
2,43876969;-88,12888000
2,44243151;-86,00732000
2,44609333;-82,72564000
2,44975514;-86,70619000
2,45341696;-84,97221000
2,45707878;-84,27787000
2,46074059;-86,62151000
2,46440241;-86,71049000
2,46806423;-84,62741000
2,47172604;-90,88435000
2,47538786;-98,35403000
2,47904967;-96,18084000
2,48271149;-99,80365000
2,48637331;-92,20757000
2,49003512;-90,40114000
2,49369694;-86,45066000
2,49735876;-95,92446000
2,50102057;-101,07560000
2,50468239;-104,57380000
2,50834421;-91,38566000
2,51200602;-93,02544000
2,51566784;-94,54804000
2,51932965;-88,44366000
2,52299147;-89,79384000
2,52665329;-89,00829000
2,53031510;-89,78046000
2,53397692;-87,42390000
2,53763874;-86,33408000
2,54130055;-86,65855000
2,54496237;-91,12157000
2,54862419;-91,54169000
2,55228600;-87,65315000
2,55594782;-84,81546000
2,55960963;-87,91040000
2,56327145;-83,71368000
2,56693327;-83,99402000
2,57059508;-86,46706000
2,57425690;-82,53290000
2,57791872;-87,71964000
2,58158053;-89,81383000
2,58524235;-87,14371000
2,58890417;-87,59018000
2,59256598;-92,08090000
2,59622780;-104,16520000
2,59988961;-101,50350000
2,60355143;-91,16105000
2,60721325;-88,36117000
2,61087506;-86,96754000
2,61453688;-82,68822000
2,61819870;-85,44482000
2,62186051;-93,56258000
2,62552233;-103,65090000
2,62918415;-98,35320000
2,63284596;-94,35943000
2,63650778;-95,95103000
2,64016959;-96,47713000
2,64383141;-87,56351000
2,64749323;-81,72040000
2,65115504;-82,77753000
2,65481686;-85,32876000
2,65847868;-86,67939000
2,66214049;-92,44361000
2,66580231;-89,98177000
2,66946413;-88,53343000
2,67312594;-93,03181000
2,67678776;-87,77824000
2,68044957;-89,34682000
2,68411139;-85,92525000
2,68777321;-86,91393000
2,69143502;-90,79997000
2,69509684;-97,26308000
2,69875866;-88,62659000
2,70242047;-86,90957000
2,70608229;-89,38203000
2,70974411;-95,02759000
2,71340592;-101,53240000
2,71706774;-97,76103000
2,72072955;-96,16921000
2,72439137;-82,07546000
2,72805319;-83,06828000
2,73171500;-88,74020000
2,73537682;-88,36949000
2,73903864;-90,69160000
2,74270045;-92,95409000
2,74636227;-92,20955000
2,75002409;-91,73817000
2,75368590;-89,29607000
2,75734772;-86,26424000
2,76100953;-86,79948000
2,76467135;-88,09731000
2,76833317;-89,23572000
2,77199498;-88,22168000
2,77565680;-93,99474000
2,77931862;-98,18421000
2,78298043;-99,68767000
2,78664225;-92,13001000
2,79030407;-89,79770000
2,79396588;-88,44118000
2,79762770;-98,05027000
2,80128951;-93,93813000
2,80495133;-94,89554000
2,80861315;-95,11963000
2,81227496;-95,36279000
2,81593678;-93,19439000
2,81959860;-92,68237000
2,82326041;-87,39722000
2,82692223;-87,32858000
2,83058405;-89,35894000
2,83424586;-90,32661000
2,83790768;-89,36700000
2,84156949;-102,21960000
2,84523131;-91,53497000
2,84889313;-89,49551000
2,85255494;-98,76735000
2,85621676;-95,99514000
2,85987858;-97,17290000
2,86354039;-103,40470000
2,86720221;-97,52225000
2,87086403;-88,57780000
2,87452584;-86,62138000
2,87818766;-88,86732000
2,88184947;-91,70497000
2,88551129;-107,84140000
2,88917311;-94,94554000
2,89283492;-93,45142000
2,89649674;-89,37600000
2,90015856;-96,34103000
2,90382037;-90,94466000
2,90748219;-86,57800000
2,91114401;-86,29639000
2,91480582;-86,69170000
2,91846764;-89,50041000
2,92212945;-92,10120000
2,92579127;-103,65900000
2,92945309;-99,17336000
2,93311490;-86,03568000
2,93677672;-83,58249000
2,94043854;-89,36847000
2,94410035;-95,39577000
2,94776217;-94,10224000
2,95142399;-102,27740000
2,95508580;-100,20030000
2,95874762;-96,29060000
2,96240943;-91,92284000
2,96607125;-89,31049000
2,96973307;-90,73042000
2,97339488;-95,35234000
2,97705670;-105,41950000
2,98071852;-105,33900000
2,98438033;-90,42313000
2,98804215;-88,13518000
2,99170396;-84,75217000
2,99536578;-81,34505000
2,99902760;-81,50778000
3,00268941;-82,24648000
3,00635123;-82,56308000
3,01001305;-82,03243000
3,01367486;-84,04477000
3,01733668;-86,25823000
3,02099850;-85,22203000
3,02466031;-86,55794000
3,02832213;-89,94717000
3,03198394;-90,44831000
3,03564576;-86,88567000
3,03930758;-84,64697000
3,04296939;-86,43752000
3,04663121;-87,33573000
3,05029303;-85,82774000
3,05395484;-83,65404000
3,05761666;-83,18208000
3,06127848;-83,70818000
3,06494029;-87,13860000
3,06860211;-92,21262000
3,07226392;-88,99657000
3,07592574;-91,47430000
3,07958756;-105,14050000
3,08324937;-92,53249000
3,08691119;-88,51510000
3,09057301;-97,72889000
3,09423482;-88,55315000
3,09789664;-101,00390000
3,10155846;-88,40321000
3,10522027;-90,54803000
3,10888209;-86,49703000
3,11254390;-84,61280000
3,11620572;-87,00156000
3,11986754;-101,05850000
3,12352935;-93,17717000
3,12719117;-95,37337000
3,13085299;-100,48930000
3,13451480;-92,65541000
3,13817662;-89,79349000
3,14183844;-93,92165000
3,14550025;-95,51247000
3,14916207;-100,98770000
3,15282388;-92,01120000
3,15648570;-99,28056000
3,16014752;-93,68621000
3,16380933;-93,55753000
3,16747115;-94,25866000
3,17113297;-100,98640000
3,17479478;-91,77434000
3,17845660;-85,82773000
3,18211842;-87,91086000
3,18578023;-102,64190000
3,18944205;-89,19671000
3,19310386;-90,95676000
3,19676568;-90,81299000
3,20042750;-100,41970000
3,20408931;-93,67183000
3,20775113;-88,71734000
3,21141295;-87,10301000
3,21507476;-89,34129000
3,21873658;-93,65274000
3,22239840;-93,73180000
3,22606021;-92,65148000
3,22972203;-92,19898000
3,23338384;-93,52428000
3,23704566;-105,83350000
3,24070748;-97,03661000
3,24436929;-87,08734000
3,24803111;-83,65944000
3,25169293;-83,71211000
3,25535474;-85,86663000
3,25901656;-86,65498000
3,26267838;-83,81024000
3,26634019;-81,51674000
3,27000201;-81,21542000
3,27366382;-86,16284000
3,27732564;-90,08755000
3,28098746;-86,67347000
3,28464927;-94,74850000
3,28831109;-86,36133000
3,29197291;-85,89851000
3,29563472;-84,46854000
3,29929654;-87,26249000
3,30295836;-95,72740000
3,30662017;-90,05637000
3,31028199;-91,11821000
3,31394380;-87,31787000
3,31760562;-86,80063000
3,32126744;-86,33318000
3,32492925;-87,70702000
3,32859107;-93,79768000
3,33225289;-94,32115000
3,33591470;-88,32333000
3,33957652;-93,10333000
3,34323834;-91,98955000
3,34690015;-92,35258000
3,35056197;-101,60100000
3,35422378;-107,27380000
3,35788560;-105,00620000
3,36154742;-93,26171000
3,36520923;-90,06837000
3,36887105;-110,25350000
3,37253287;-90,43530000
3,37619468;-91,02563000
3,37985650;-93,29098000
3,38351832;-88,59752000
3,38718013;-86,14320000
3,39084195;-85,44389000
3,39450376;-91,36784000
3,39816558;-91,85906000
3,40182740;-117,29800000
3,40548921;-91,77042000
3,40915103;-89,18065000
3,41281285;-86,68584000
3,41647466;-86,80436000
3,42013648;-89,77528000
3,42379830;-92,73372000
3,42746011;-99,59602000
3,43112193;-90,65469000
3,43478374;-86,04402000
3,43844556;-89,18496000
3,44210738;-97,31965000
3,44576919;-87,32614000
3,44943101;-90,15511000
3,45309283;-95,48141000
3,45675464;-92,11823000
3,46041646;-92,41386000
3,46407828;-128,80560000
3,46774009;-90,38024000
3,47140191;-86,83525000
3,47506372;-86,49113000
3,47872554;-88,54346000
3,48238736;-90,32383000
3,48604917;-90,28796000
3,48971099;-95,76820000
3,49337281;-92,47961000
3,49703462;-90,96646000
3,50069644;-95,53296000
3,50435826;-92,29381000
3,50802007;-97,05463000
3,51168189;-93,35631000
3,51534370;-87,85461000
3,51900552;-90,02960000
3,52266734;-96,10739000
3,52632915;-92,34933000
3,52999097;-87,83456000
3,53365279;-87,09412000
3,53731460;-91,37043000
3,54097642;-87,30846000
3,54463824;-84,19559000
3,54830005;-87,40807000
3,55196187;-95,70123000
3,55562368;-85,33569000
3,55928550;-86,33742000
3,56294732;-89,93407000
3,56660913;-99,55748000
3,57027095;-89,19339000
3,57393277;-87,20535000
3,57759458;-92,18452000
3,58125640;-99,76976000
3,58491822;-97,41557000
3,58858003;-92,85110000
3,59224185;-93,73981000
3,59590366;-96,71223000
3,59956548;-92,74127000
3,60322730;-90,30678000
3,60688911;-89,35797000
3,61055093;-85,47515000
3,61421275;-84,77019000
3,61787456;-86,73454000
3,62153638;-87,99242000
3,62519819;-90,53979000
3,62886001;-95,10393000
3,63252183;-96,52299000
3,63618364;-91,67842000
3,63984546;-90,52965000
3,64350728;-89,48190000
3,64716909;-88,21497000
3,65083091;-89,98314000
3,65449273;-85,66751000
3,65815454;-84,57284000
3,66181636;-90,80647000
3,66547817;-100,38500000
3,66913999;-98,13179000
3,67280181;-97,68300000
3,67646362;-99,77702000
3,68012544;-102,96470000
3,68378726;-95,50400000
3,68744907;-87,00252000
3,69111089;-87,11178000
3,69477271;-94,80243000
3,69843452;-92,44060000
3,70209634;-96,01009000
3,70575815;-89,03149000
3,70941997;-86,25777000
3,71308179;-90,62611000
3,71674360;-91,26807000
3,72040542;-91,39845000
3,72406724;-87,99045000
3,72772905;-91,76209000
3,73139087;-91,80876000
3,73505269;-89,28127000
3,73871450;-93,30143000
3,74237632;-93,86298000
3,74603813;-93,14243000
3,74969995;-92,29752000
3,75336177;-88,04935000
3,75702358;-84,95396000
3,76068540;-88,54395000
3,76434722;-93,61584000
3,76800903;-91,06910000
3,77167085;-92,32672000
3,77533267;-91,81815000
3,77899448;-90,47458000
3,78265630;-91,68707000
3,78631811;-92,14500000
3,78997993;-89,83119000
3,79364175;-89,35387000
3,79730356;-92,56565000
3,80096538;-98,09948000
3,80462720;-97,29828000
3,80828901;-91,09634000
3,81195083;-97,10205000
3,81561265;-92,78678000
3,81927446;-89,99501000
3,82293628;-88,00439000
3,82659809;-84,28699000
3,83025991;-81,36123000
3,83392173;-83,21250000
3,83758354;-86,46983000
3,84124536;-88,08687000
3,84490718;-94,56612000
3,84856899;-90,45979000
3,85223081;-88,28930000
3,85589263;-88,37666000
3,85955444;-92,09545000
3,86321626;-97,81739000
3,86687807;-92,67805000
3,87053989;-92,31239000
3,87420171;-86,81514000
3,87786352;-86,98415000
3,88152534;-88,79585000
3,88518716;-93,53303000
3,88884897;-90,19070000
3,89251079;-86,46668000
3,89617261;-86,24971000
3,89983442;-89,44150000
3,90349624;-93,05998000
3,90715805;-89,27163000
3,91081987;-93,10165000
3,91448169;-91,79679000
3,91814350;-94,22209000
3,92180532;-88,05946000
3,92546714;-87,94138000
3,92912895;-88,11017000
3,93279077;-85,61142000
3,93645259;-83,60461000
3,94011440;-86,69862000
3,94377622;-93,50386000
3,94743803;-94,46269000
3,95109985;-88,28204000
3,95476167;-87,83070000
3,95842348;-87,86729000
3,96208530;-92,50317000
3,96574712;-103,06120000
3,96940893;-94,22074000
3,97307075;-87,31078000
3,97673257;-83,88660000
3,98039438;-82,02490000
3,98405620;-82,19099000
3,98771801;-81,43166000
3,99137983;-79,33679000
3,99504165;-85,54283000
3,99870346;-81,50597000
4,00236528;-81,88651000
4,00602710;-92,51591000
4,00968891;-89,30473000
4,01335073;-86,65816000
4,01701255;-88,04939000
4,02067436;-94,54459000
4,02433618;-96,09131000
4,02799799;-100,75540000
4,03165981;-96,32188000
4,03532163;-90,30573000
4,03898344;-88,94652000
4,04264526;-91,82304000
4,04630708;-103,56420000
4,04996889;-90,87656000
4,05363071;-88,17764000
4,05729253;-88,47713000
4,06095434;-90,68213000
4,06461616;-96,74886000
4,06827797;-97,74586000
4,07193979;-92,54498000
4,07560161;-92,24800000
4,07926342;-91,28221000
4,08292524;-87,04015000
4,08658706;-89,67921000
4,09024887;-102,86490000
4,09391069;-87,83759000
4,09757251;-90,74916000
4,10123432;-92,54398000
4,10489614;-88,70003000
4,10855795;-90,53437000
4,11221977;-81,75604000
4,11588159;-82,77397000
4,11954340;-87,86896000
4,12320522;-89,30999000
4,12686704;-88,83304000
4,13052885;-92,99191000
4,13419067;-92,73389000
4,13785249;-89,12505000
4,14151430;-88,40669000
4,14517612;-90,79575000
4,14883793;-96,13784000
4,15249975;-96,40126000
4,15616157;-95,67193000
4,15982338;-88,78849000
4,16348520;-88,17429000
4,16714702;-89,60099000
4,17080883;-88,97071000
4,17447065;-89,56207000
4,17813247;-88,07473000
4,18179428;-85,48328000
4,18545610;-91,08268000
4,18911791;-99,88418000
4,19277973;-93,90453000
4,19644155;-86,19774000
4,20010336;-85,59406000
4,20376518;-85,78761000
4,20742700;-90,25175000
4,21108881;-88,80447000
4,21475063;-88,52972000
4,21841245;-96,16268000
4,22207426;-106,95970000
4,22573608;-100,44980000
4,22939789;-98,21852000
4,23305971;-92,91663000
4,23672153;-102,09370000
4,24038334;-97,16709000
4,24404516;-86,63834000
4,24770698;-87,84249000
4,25136879;-101,68880000
4,25503061;-100,46210000
4,25869243;-95,39050000
4,26235424;-94,25676000
4,26601606;-90,89967000
4,26967787;-86,50024000
4,27333969;-89,20303000
4,27700151;-96,20826000
4,28066332;-108,31770000
4,28432514;-93,32512000
4,28798696;-86,44208000
4,29164877;-84,33313000
4,29531059;-83,99776000
4,29897240;-84,24026000
4,30263422;-85,12389000
4,30629604;-85,53794000
4,30995785;-85,69854000
4,31361967;-89,11284000
4,31728149;-90,47293000
4,32094330;-87,18727000
4,32460512;-87,03778000
4,32826694;-90,75829000
4,33192875;-87,74687000
4,33559057;-86,05897000
4,33925238;-89,60171000
4,34291420;-89,81416000
4,34657602;-90,80273000
4,35023783;-87,28812000
4,35389965;-86,38355000
4,35756147;-90,72285000
4,36122328;-92,42755000
4,36488510;-87,56379000
4,36854692;-83,98311000
4,37220873;-88,55600000
4,37587055;-99,42735000
4,37953236;-96,96828000
4,38319418;-92,27452000
4,38685600;-85,37865000
4,39051781;-82,21193000
4,39417963;-83,38719000
4,39784145;-87,28011000
4,40150326;-89,64001000
4,40516508;-91,04485000
4,40882690;-90,27638000
4,41248871;-87,22861000
4,41615053;-86,65627000
4,41981234;-94,47346000
4,42347416;-97,63394000
4,42713598;-98,78051000
4,43079779;-100,19550000
4,43445961;-93,69018000
4,43812143;-94,62719000
4,44178324;-106,94470000
4,44544506;-90,34074000
4,44910688;-88,67670000
4,45276869;-87,55009000
4,45643051;-87,55074000
4,46009232;-89,28171000
4,46375414;-87,40907000
4,46741596;-87,82553000
4,47107777;-89,33356000
4,47473959;-91,95515000
4,47840141;-100,85570000
4,48206322;-99,51816000
4,48572504;-101,00320000
4,48938686;-95,88341000
4,49304867;-87,54333000
4,49671049;-87,40503000
4,50037230;-90,97997000
4,50403412;-89,51338000
4,50769594;-85,70843000
4,51135775;-86,89396000
4,51501957;-97,17213000
4,51868139;-101,34250000
4,52234320;-92,34845000
4,52600502;-87,07452000
4,52966684;-89,03840000
4,53332865;-94,63101000
4,53699047;-94,62922000
4,54065228;-93,19245000
4,54431410;-103,61380000
4,54797592;-90,72259000
4,55163773;-90,00183000
4,55529955;-89,65775000
4,55896137;-91,30654000
4,56262318;-91,12465000
4,56628500;-93,65723000
4,56994682;-92,44762000
4,57360863;-89,15924000
4,57727045;-89,44386000
4,58093226;-103,34260000
4,58459408;-92,72549000
4,58825590;-92,28711000
4,59191771;-88,88348000
4,59557953;-87,68965000
4,59924135;-92,20335000
4,60290316;-101,73720000
4,60656498;-100,17240000
4,61022680;-97,82349000
4,61388861;-93,53721000
4,61755043;-92,72971000
4,62121224;-90,55396000
4,62487406;-93,42735000
4,62853588;-85,99969000
4,63219769;-84,60608000
4,63585951;-87,48827000
4,63952133;-90,65708000
4,64318314;-91,82559000
4,64684496;-95,21631000
4,65050678;-93,43073000
4,65416859;-92,81444000
4,65783041;-91,78218000
4,66149222;-92,74683000
4,66515404;-89,96967000
4,66881586;-87,60049000
4,67247767;-86,45462000
4,67613949;-91,52324000
4,67980131;-99,76173000
4,68346312;-102,13250000
4,68712494;-92,64354000
4,69078676;-96,61224000
4,69444857;-87,95259000
4,69811039;-87,52763000
4,70177220;-88,41376000
4,70543402;-89,02525000
4,70909584;-96,75053000
4,71275765;-94,53992000
4,71641947;-90,68205000
4,72008129;-97,11127000
4,72374310;-85,47116000
4,72740492;-91,14056000
4,73106674;-90,70638000
4,73472855;-85,38814000
4,73839037;-87,27426000
4,74205218;-87,48531000
4,74571400;-84,93949000
4,74937582;-84,03004000
4,75303763;-86,61897000
4,75669945;-93,36859000
4,76036127;-110,48090000
4,76402308;-92,97021000
4,76768490;-97,32837000
4,77134672;-100,61560000
4,77500853;-101,48880000
4,77867035;-91,24231000
4,78233216;-92,74666000
4,78599398;-92,67097000
4,78965580;-92,41600000
4,79331761;-90,22581000
4,79697943;-90,98541000
4,80064125;-94,37988000
4,80430306;-92,39730000
4,80796488;-97,43954000
4,81162670;-95,38158000
4,81528851;-98,43300000
4,81895033;-102,78310000
4,82261214;-96,65541000
4,82627396;-98,37787000
4,82993578;-97,11631000
4,83359759;-91,54967000
4,83725941;-99,95538000
4,84092123;-99,87419000
4,84458304;-92,67699000
4,84824486;-89,72247000
4,85190668;-98,05291000
4,85556849;-99,07788000
4,85923031;-102,76840000
4,86289212;-90,39527000
4,86655394;-84,37355000
4,87021576;-86,99693000
4,87387757;-93,41177000
4,87753939;-92,45605000
4,88120121;-91,44039000
4,88486302;-94,47129000
4,88852484;-89,64555000
4,89218666;-86,65892000
4,89584847;-92,30801000
4,89951029;-85,72523000
4,90317210;-83,85034000
4,90683392;-84,26813000
4,91049574;-84,53465000
4,91415755;-84,66045000
4,91781937;-84,08623000
4,92148119;-83,50658000
4,92514300;-86,32626000
4,92880482;-98,61334000
4,93246663;-90,36835000
4,93612845;-87,64392000
4,93979027;-90,55701000
4,94345208;-98,26310000
4,94711390;-105,44420000
4,95077572;-94,94302000
4,95443753;-89,26584000
4,95809935;-89,76913000
4,96176117;-94,78922000
4,96542298;-91,28127000
4,96908480;-88,62439000
4,97274661;-87,01161000
4,97640843;-88,64503000
4,98007025;-94,15594000
4,98373206;-88,46774000
4,98739388;-93,68472000
4,99105570;-97,14575000
4,99471751;-90,15839000
4,99837933;-93,18369000
5,00204115;-98,44336000
5,00570296;-91,17624000
5,00936478;-89,14256000
5,01302659;-94,57436000
5,01668841;-102,76630000
5,02035023;-93,61225000
5,02401204;-90,71754000
5,02767386;-87,22457000
5,03133568;-87,03210000
5,03499749;-95,44795000
5,03865931;-92,72027000
5,04232113;-86,10814000
5,04598294;-87,45856000
5,04964476;-93,01685000
5,05330657;-91,78307000
5,05696839;-93,06317000
5,06063021;-108,94470000
5,06429202;-103,20680000
5,06795384;-108,81800000
5,07161566;-94,26224000
5,07527747;-91,09933000
5,07893929;-90,38041000
5,08260111;-91,54881000
5,08626292;-89,28967000
5,08992474;-86,99296000
5,09358655;-88,79451000
5,09724837;-88,63501000
5,10091019;-85,90988000
5,10457200;-88,39943000
5,10823382;-91,85193000
5,11189564;-87,89810000
5,11555745;-87,28606000
5,11921927;-87,53290000
5,12288109;-88,01101000
5,12654290;-95,24970000
5,13020472;-99,44762000
5,13386653;-95,20441000
5,13752835;-89,08351000
5,14119017;-92,13859000
5,14485198;-97,12968000
5,14851380;-90,21266000
5,15217562;-85,60144000
5,15583743;-86,46582000
5,15949925;-88,18534000
5,16316107;-85,86854000
5,16682288;-88,17231000
5,17048470;-98,87973000
5,17414651;-93,59196000
5,17780833;-90,29709000
5,18147015;-88,59130000
5,18513196;-88,25169000
5,18879378;-112,24910000
5,19245560;-97,84882000
5,19611741;-95,92278000
5,19977923;-89,11668000
5,20344105;-94,32354000
5,20710286;-95,65813000
5,21076468;-85,74395000
5,21442649;-84,40541000
5,21808831;-89,94077000
5,22175013;-87,92248000
5,22541194;-90,53059000
5,22907376;-91,83731000
5,23273558;-89,95483000
5,23639739;-88,97149000
5,24005921;-96,81682000
5,24372103;-94,24496000
5,24738284;-87,66625000
5,25104466;-96,66908000
5,25470647;-89,21362000
5,25836829;-88,62340000
5,26203011;-89,95917000
5,26569192;-90,68465000
5,26935374;-96,95592000
5,27301556;-95,36857000
5,27667737;-91,03584000
5,28033919;-92,98191000
5,28400101;-89,71961000
5,28766282;-87,98584000
5,29132464;-87,77123000
5,29498645;-90,76156000
5,29864827;-99,35233000
5,30231009;-96,16672000
5,30597190;-116,07700000
5,30963372;-95,36479000
5,31329554;-96,13465000
5,31695735;-90,97079000
5,32061917;-85,48572000
5,32428099;-84,67923000
5,32794280;-93,19115000
5,33160462;-107,76080000
5,33526643;-98,55785000
5,33892825;-89,54851000
5,34259007;-87,64825000
5,34625188;-87,53740000
5,34991370;-86,56085000
5,35357552;-84,64682000
5,35723733;-88,33841000
5,36089915;-100,14950000
5,36456097;-104,59270000
5,36822278;-92,65022000
5,37188460;-102,54570000
5,37554641;-86,95848000
5,37920823;-84,71200000
5,38287005;-92,88738000
5,38653186;-96,88453000
5,39019368;-89,55824000
5,39385550;-94,45724000
5,39751731;-101,65440000
5,40117913;-92,29234000
5,40484095;-86,03336000
5,40850276;-81,59355000
5,41216458;-80,35136000
5,41582639;-85,57125000
5,41948821;-95,25437000
5,42315003;-89,92017000
5,42681184;-96,46349000
5,43047366;-92,54166000
5,43413548;-88,62823000
5,43779729;-96,52637000
5,44145911;-89,92824000
5,44512093;-85,33935000
5,44878274;-87,29849000
5,45244456;-90,96994000
5,45610637;-91,20802000
5,45976819;-93,10523000
5,46343001;-102,05680000
5,46709182;-91,98022000
5,47075364;-91,71117000
5,47441546;-93,64753000
5,47807727;-94,17310000
5,48173909;-91,10053000
5,48540091;-86,94713000
5,48906272;-88,20565000
5,49272454;-91,82723000
5,49638635;-89,76036000
5,50004817;-86,03214000
5,50370999;-84,14839000
5,50737180;-84,83971000
5,51103362;-84,60753000
5,51469544;-83,46755000
5,51835725;-84,46774000
5,52201907;-88,54651000
5,52568089;-92,91437000
5,52934270;-89,83881000
5,53300452;-87,92969000
5,53666633;-90,87006000
5,54032815;-94,78840000
5,54398997;-87,47194000
5,54765178;-89,94618000
5,55131360;-93,44201000
5,55497542;-95,64435000
5,55863723;-89,37250000
5,56229905;-88,24505000
5,56596087;-88,59673000
5,56962268;-89,61592000
5,57328450;-91,31847000
5,57694631;-94,04271000
5,58060813;-93,06456000
5,58426995;-95,46459000
5,58793176;-99,62125000
5,59159358;-93,00950000
5,59525540;-87,14973000
5,59891721;-83,68283000
5,60257903;-82,17722000
5,60624084;-82,48016000
5,60990266;-85,03941000
5,61356448;-87,78459000
5,61722629;-87,15611000
5,62088811;-84,54318000
5,62454993;-82,34126000
5,62821174;-82,41951000
5,63187356;-85,05810000
5,63553538;-86,41675000
5,63919719;-85,13226000
5,64285901;-88,92007000
5,64652082;-97,97123000
5,65018264;-97,97146000
5,65384446;-89,56419000
5,65750627;-86,48171000
5,66116809;-84,73228000
5,66482991;-87,89326000
5,66849172;-91,37245000
5,67215354;-86,77467000
5,67581536;-84,25134000
5,67947717;-82,77939000
5,68313899;-82,25681000
5,68680080;-83,70767000
5,69046262;-86,57966000
5,69412444;-86,62672000
5,69778625;-85,59312000
5,70144807;-87,86759000
5,70510989;-92,20274000
5,70877170;-100,78000000
5,71243352;-89,32003000
5,71609534;-91,59625000
5,71975715;-94,86987000
5,72341897;-91,84261000
5,72708078;-92,52422000
5,73074260;-86,15599000
5,73440442;-85,33202000
5,73806623;-86,89526000
5,74172805;-88,34687000
5,74538987;-91,26927000
5,74905168;-93,93093000
5,75271350;-101,20690000
5,75637532;-99,66025000
5,76003713;-92,57743000
5,76369895;-88,35808000
5,76736076;-102,58010000
5,77102258;-92,94513000
5,77468440;-96,30255000
5,77834621;-98,85834000
5,78200803;-98,70934000
5,78566985;-89,97612000
5,78933166;-89,78013000
5,79299348;-98,66785000
5,79665530;-92,94921000
5,80031711;-97,93946000
5,80397893;-84,58467000
5,80764074;-86,05904000
5,81130256;-97,02666000
5,81496438;-91,90926000
5,81862619;-88,68040000
5,82228801;-88,08569000
5,82594983;-86,85378000
5,82961164;-85,65778000
5,83327346;-87,34214000
5,83693528;-91,15298000
5,84059709;-105,86120000
5,84425891;-92,16611000
5,84792072;-98,49730000
5,85158254;-90,79281000
5,85524436;-91,93890000
5,85890617;-99,36980000
5,86256799;-93,05777000
5,86622981;-88,59577000
5,86989162;-86,61564000
5,87355344;-87,93174000
5,87721526;-91,02544000
5,88087707;-91,46002000
5,88453889;-90,75171000
5,88820070;-85,13976000
5,89186252;-82,09671000
5,89552434;-82,66938000
5,89918615;-87,99811000
5,90284797;-88,90311000
5,90650979;-88,15766000
5,91017160;-92,14790000
5,91383342;-98,27960000
5,91749524;-92,46959000
5,92115705;-95,73670000
5,92481887;-92,83897000
5,92848068;-86,88573000
5,93214250;-87,46551000
5,93580432;-92,06677000
5,93946613;-90,40580000
5,94312795;-87,63768000
5,94678977;-100,08960000
5,95045158;-90,95901000
5,95411340;-89,39706000
5,95777522;-90,79612000
5,96143703;-91,99393000
5,96509885;-94,24865000
5,96876066;-89,90714000
5,97242248;-90,75502000
5,97608430;-92,91498000
5,97974611;-93,25031000
5,98340793;-93,29305000
5,98706975;-88,94214000
5,99073156;-88,46893000
5,99439338;-97,98688000
5,99805520;-90,56644000
6,00171701;-88,14818000
6,00537883;-87,12219000
6,00904064;-89,27379000
6,01270246;-95,04327000
6,01636428;-91,88511000
6,02002609;-96,26164000
6,02368791;-98,99065000
6,02734973;-88,28389000
6,03101154;-83,00444000
6,03467336;-83,49731000
6,03833518;-87,27859000
6,04199699;-88,88945000
6,04565881;-93,84350000
6,04932062;-94,68108000
6,05298244;-88,69485000
6,05664426;-85,08260000
6,06030607;-82,84850000
6,06396789;-82,42990000
6,06762971;-85,88449000
6,07129152;-89,20899000
6,07495334;-95,48709000
6,07861516;-98,02631000
6,08227697;-99,27643000
6,08593879;-84,55717000
6,08960060;-82,75197000
6,09326242;-85,87025000
6,09692424;-97,17538000
6,10058605;-86,64268000
6,10424787;-85,34752000
6,10790969;-87,41901000
6,11157150;-89,20322000
6,11523332;-92,10313000
6,11889514;-83,32188000
6,12255695;-86,55074000
6,12621877;-95,54942000
6,12988058;-88,42098000
6,13354240;-86,76575000
6,13720422;-93,07332000
6,14086603;-92,94090000
6,14452785;-86,12347000
6,14818967;-86,09727000
6,15185148;-94,92027000
6,15551330;-95,91309000
6,15917512;-92,82455000
6,16283693;-90,91905000
6,16649875;-84,45673000
6,17016056;-81,57121000
6,17382238;-86,91601000
6,17748420;-87,02049000
6,18114601;-85,82224000
6,18480783;-84,57773000
6,18846965;-91,99232000
6,19213146;-97,94740000
6,19579328;-97,19544000
6,19945510;-90,23224000
6,20311691;-88,33249000
6,20677873;-95,00169000
6,21044054;-88,34721000
6,21410236;-87,45207000
6,21776418;-92,27664000
6,22142599;-93,28578000
6,22508781;-88,90581000
6,22874963;-86,78474000
6,23241144;-90,05020000
6,23607326;-88,90846000
6,23973507;-90,19531000
6,24339689;-92,67168000
6,24705871;-90,76626000
6,25072052;-94,40594000
6,25438234;-84,76502000
6,25804416;-83,73936000
6,26170597;-85,34557000
6,26536779;-86,00097000
6,26902961;-86,31874000
6,27269142;-86,18499000
6,27635324;-85,39301000
6,28001505;-93,92137000
6,28367687;-93,12843000
6,28733869;-90,88390000
6,29100050;-90,64696000
6,29466232;-87,10158000
6,29832414;-93,18086000
6,30198595;-99,66299000
6,30564777;-94,95846000
6,30930959;-95,02242000
6,31297140;-101,11670000
6,31663322;-99,60754000
6,32029503;-91,41342000
6,32395685;-92,49185000
6,32761867;-97,11936000
6,33128048;-90,15402000
6,33494230;-84,61334000
6,33860412;-83,80660000
6,34226593;-84,77985000
6,34592775;-87,01489000
6,34958957;-92,05723000
6,35325138;-100,05930000
6,35691320;-92,22237000
6,36057501;-98,46973000
6,36423683;-95,00980000
6,36789865;-92,18288000
6,37156046;-92,25366000
6,37522228;-101,37780000
6,37888410;-93,73864000
6,38254591;-90,98387000
6,38620773;-87,07823000
6,38986955;-92,82706000
6,39353136;-89,02378000
6,39719318;-80,44571000
6,40085499;-78,24090000
6,40451681;-81,53175000
6,40817863;-89,09608000
6,41184044;-84,74885000
6,41550226;-88,09737000
6,41916408;-99,48621000
6,42282589;-89,72558000
6,42648771;-88,62366000
6,43014953;-89,69832000
6,43381134;-88,19382000
6,43747316;-88,77044000
6,44113497;-91,58513000
6,44479679;-94,91261000
6,44845861;-95,90488000
6,45212042;-95,36610000
6,45578224;-103,17170000
6,45944406;-92,02958000
6,46310587;-89,70379000
6,46676769;-91,09122000
6,47042951;-98,04520000
6,47409132;-89,38840000
6,47775314;-87,24003000
6,48141495;-90,67429000
6,48507677;-90,02098000
6,48873859;-93,51722000
6,49240040;-88,59468000
6,49606222;-91,93172000
6,49972404;-91,50710000
6,50338585;-89,32655000
6,50704767;-100,44340000
6,51070949;-90,18951000
6,51437130;-87,95856000
6,51803312;-82,38232000
6,52169493;-82,98486000
6,52535675;-94,42084000
6,52901857;-88,90250000
6,53268038;-92,39354000
6,53634220;-103,08520000
6,54000402;-92,94064000
6,54366583;-87,40651000
6,54732765;-87,25803000
6,55098947;-86,40789000
6,55465128;-87,00840000
6,55831310;-91,79626000
6,56197491;-92,74438000
6,56563673;-99,34114000
6,56929855;-94,25164000
6,57296036;-91,04343000
6,57662218;-89,12902000
6,58028400;-89,57726000
6,58394581;-87,72355000
6,58760763;-83,31041000
6,59126945;-85,16083000
6,59493126;-89,69054000
6,59859308;-89,98930000
6,60225489;-101,60070000
6,60591671;-94,49014000
6,60957853;-87,71697000
6,61324034;-85,81171000
6,61690216;-87,72729000
6,62056398;-89,98398000
6,62422579;-90,77469000
6,62788761;-90,15357000
6,63154943;-88,21335000
6,63521124;-87,68012000
6,63887306;-89,12521000
6,64253487;-101,09010000
6,64619669;-91,77383000
6,64985851;-87,49374000
6,65352032;-88,52925000
6,65718214;-93,38546000
6,66084396;-95,62351000
6,66450577;-91,20159000
6,66816759;-92,79738000
6,67182941;-91,31156000
6,67549122;-93,52553000
6,67915304;-90,32121000
6,68281485;-86,03195000
6,68647667;-88,15938000
6,69013849;-100,93270000
6,69380030;-95,09903000
6,69746212;-92,88566000
6,70112394;-95,22726000
6,70478575;-102,25970000
6,70844757;-98,50333000
6,71210939;-111,08790000
6,71577120;-100,88560000
6,71943302;-104,35450000
6,72309483;-95,44591000
6,72675665;-87,99915000
6,73041847;-85,96233000
6,73408028;-87,69780000
6,73774210;-90,00710000
6,74140392;-100,65510000
6,74506573;-97,79472000
6,74872755;-96,99323000
6,75238937;-89,53445000
6,75605118;-88,06215000
6,75971300;-95,42999000
6,76337481;-101,07660000
6,76703663;-97,66022000
6,77069845;-91,31377000
6,77436026;-86,97486000
6,77802208;-87,89575000
6,78168390;-95,34128000
6,78534571;-92,73898000
6,78900753;-92,47852000
6,79266935;-89,22052000
6,79633116;-89,07078000
6,79999298;-97,15147000
6,80365479;-86,37817000
6,80731661;-82,31970000
6,81097843;-81,61240000
6,81464024;-82,87917000
6,81830206;-85,45386000
6,82196388;-88,03936000
6,82562569;-90,88194000
6,82928751;-97,03269000
6,83294933;-100,84830000
6,83661114;-90,04355000
6,84027296;-86,78488000
6,84393477;-85,18575000
6,84759659;-84,39008000
6,85125841;-86,15833000
6,85492022;-88,14847000
6,85858204;-88,47874000
6,86224386;-94,56855000
6,86590567;-93,75963000
6,86956749;-87,43922000
6,87322931;-86,95247000
6,87689112;-86,99342000
6,88055294;-92,69402000
6,88421475;-107,98240000
6,88787657;-90,27928000
6,89153839;-84,43950000
6,89520020;-86,89682000
6,89886202;-98,80554000
6,90252384;-88,10917000
6,90618565;-87,53984000
6,90984747;-90,15384000
6,91350928;-87,89070000
6,91717110;-91,48172000
6,92083292;-92,45337000
6,92449473;-89,58406000
6,92815655;-88,49948000
6,93181837;-90,27478000
6,93548018;-104,85930000
6,93914200;-92,42632000
6,94280382;-89,06224000
6,94646563;-89,34440000
6,95012745;-89,34109000
6,95378926;-87,57123000
6,95745108;-87,10341000
6,96111290;-90,41057000
6,96477471;-97,49777000
6,96843653;-96,45825000
6,97209835;-92,38139000
6,97576016;-86,81561000
6,97942198;-83,90405000
6,98308380;-85,90138000
6,98674561;-89,43626000
6,99040743;-92,84602000
6,99406924;-100,45180000
6,99773106;-99,41882000
7,00139288;-90,93906000
7,00505469;-88,09887000
7,00871651;-90,53207000
7,01237833;-100,64600000
7,01604014;-91,63951000
7,01970196;-91,12313000
7,02336378;-93,03493000
7,02702559;-91,22298000
7,03068741;-89,11736000
7,03434922;-93,42423000
7,03801104;-93,62891000
7,04167286;-95,08971000
7,04533467;-89,38477000
7,04899649;-87,63009000
7,05265831;-106,49560000
7,05632012;-89,79401000
7,05998194;-87,36736000
7,06364376;-97,53465000
7,06730557;-90,59123000
7,07096739;-88,63264000
7,07462920;-86,49805000
7,07829102;-85,07088000
7,08195284;-85,39402000
7,08561465;-85,09474000
7,08927647;-86,69434000
7,09293829;-92,02222000
7,09660010;-95,75545000
7,10026192;-89,67175000
7,10392374;-87,58778000
7,10758555;-95,47273000
7,11124737;-102,36670000
7,11490918;-99,20851000
7,11857100;-105,45140000
7,12223282;-98,81192000
7,12589463;-101,05540000
7,12955645;-95,21762000
7,13321827;-90,36676000
7,13688008;-86,36147000
7,14054190;-86,20723000
7,14420372;-89,07825000
7,14786553;-83,83983000
7,15152735;-82,38357000
7,15518916;-87,84985000
7,15885098;-93,27145000
7,16251280;-89,00943000
7,16617461;-85,88507000
7,16983643;-88,45741000
7,17349825;-95,27295000
7,17716006;-95,18614000
7,18082188;-93,68800000
7,18448370;-89,89700000
7,18814551;-94,03378000
7,19180733;-93,43219000
7,19546914;-98,89290000
7,19913096;-92,83731000
7,20279278;-97,28753000
7,20645459;-98,35526000
7,21011641;-86,83479000
7,21377823;-83,56615000
7,21744004;-83,13261000
7,22110186;-85,88486000
7,22476368;-86,87259000
7,22842549;-88,34209000
7,23208731;-91,20592000
7,23574912;-90,70964000
7,23941094;-86,79440000
7,24307276;-88,19246000
7,24673457;-90,98463000
7,25039639;-88,30070000
7,25405821;-88,15517000
7,25772002;-92,50882000
7,26138184;-100,15880000
7,26504366;-91,71943000
7,26870547;-93,02316000
7,27236729;-91,47437000
7,27602910;-100,91610000
7,27969092;-95,47905000
7,28335274;-92,53643000
7,28701455;-101,19180000
7,29067637;-97,94702000
7,29433819;-88,60403000
7,29800000;-84,54506000
7,30166182;-85,86783000
7,30532364;-94,98093000
7,30898545;-103,46150000
7,31264727;-92,80818000
7,31630908;-91,69539000
7,31997090;-101,54520000
7,32363272;-98,72729000
7,32729453;-95,56695000
7,33095635;-89,12078000
7,33461817;-89,98329000
7,33827998;-92,74295000
7,34194180;-101,75100000
7,34560362;-93,69259000
7,34926543;-95,05228000
7,35292725;-85,34232000
7,35658906;-85,04973000
7,36025088;-103,21710000
7,36391270;-88,92310000
7,36757451;-90,65873000
7,37123633;-105,45030000
7,37489815;-95,19180000
7,37855996;-86,66785000
7,38222178;-84,48088000
7,38588360;-90,52592000
7,38954541;-90,15915000
7,39320723;-93,29166000
7,39686904;-93,55199000
7,40053086;-88,87138000
7,40419268;-94,13731000
7,40785449;-92,75875000
7,41151631;-90,58667000
7,41517813;-94,26537000
7,41883994;-90,81761000
7,42250176;-89,78996000
7,42616358;-96,67685000
7,42982539;-89,28104000
7,43348721;-84,05966000
7,43714902;-86,99879000
7,44081084;-90,93288000
7,44447266;-96,53632000
7,44813447;-96,94767000
7,45179629;-92,87952000
7,45545811;-87,95937000
7,45911992;-84,76343000
7,46278174;-86,24728000
7,46644356;-96,14076000
7,47010537;-91,06986000
7,47376719;-84,67075000
7,47742900;-82,06588000
7,48109082;-82,64794000
7,48475264;-86,33826000
7,48841445;-86,84658000
7,49207627;-93,89599000
7,49573809;-89,00013000
